Wavenumber,Intensity
650.4205,0.065723
652.2841,0.067364
654.1478,0.066797
656.0115,0.065721
657.8751,0.066729
659.7388,0.066142
661.6025,0.064023
663.4661,0.063364
665.3298,0.063333
667.1935,0.063243
669.0571,0.062907
670.9208,0.062501
672.7845,0.062701
674.6481,0.062889
676.5118,0.063364
678.3755,0.062055
680.2392,0.059813
682.1028,0.059937
683.9665,0.060008
685.8302,0.058184
687.6938,0.058087
689.5575,0.058964
691.4212,0.059228
693.2848,0.059248
695.1485,0.058464
697.0122,0.057491
698.8758,0.057567
700.7395,0.057765
702.6032,0.057327
704.4669,0.056347
706.3305,0.056035
708.1942,0.055218
710.0579,0.053953
711.9215,0.053294
713.7852,0.052249
715.6489,0.052060
717.5125,0.052771
719.3762,0.052612
721.2399,0.051251
723.1035,0.049583
724.9672,0.048652
726.8309,0.048621
728.6945,0.048657
730.5582,0.048223
732.4219,0.048054
734.2856,0.047799
736.1492,0.047054
738.0129,0.047014
739.8766,0.047186
741.7402,0.046946
743.6039,0.046744
745.4676,0.046097
747.3312,0.045136
749.1949,0.044597
751.0586,0.044239
752.9222,0.044070
754.7859,0.043729
756.6496,0.043249
758.5132,0.043561
760.3769,0.043511
762.2406,0.042664
764.1043,0.042003
765.9679,0.041644
767.8316,0.041658
769.6953,0.041708
771.5589,0.041309
773.4226,0.040960
775.2863,0.040440
777.1499,0.039564
779.0136,0.039290
780.8773,0.039392
782.7409,0.039330
784.6046,0.038866
786.4683,0.038151
788.3320,0.037404
790.1956,0.036936
792.0593,0.036917
793.9230,0.036535
795.7866,0.036155
797.6503,0.036175
799.5140,0.035948
801.3776,0.035467
803.2413,0.035131
805.1050,0.035052
806.9686,0.034732
808.8323,0.034380
810.6960,0.034205
812.5596,0.034097
814.4233,0.034096
816.2870,0.033903
818.1507,0.033585
820.0143,0.033373
821.8780,0.032968
823.7417,0.032395
825.6053,0.031915
827.4690,0.031416
829.3327,0.030855
831.1963,0.030490
833.0600,0.030358
834.9237,0.029935
836.7873,0.029446
838.6510,0.029085
840.5147,0.028554
842.3784,0.028153
844.2420,0.028059
846.1057,0.027924
847.9694,0.027467
849.8330,0.027173
851.6967,0.027215
853.5604,0.026954
855.4240,0.026561
857.2877,0.026509
859.1514,0.026594
861.0150,0.026533
862.8787,0.026352
864.7424,0.026302
866.6060,0.026365
868.4697,0.026375
870.3334,0.026478
872.1971,0.026655
874.0607,0.026623
875.9244,0.026272
877.7881,0.026155
879.6517,0.026350
881.5154,0.026127
883.3791,0.025721
885.2427,0.025577
887.1064,0.025563
888.9701,0.025677
890.8337,0.025784
892.6974,0.025725
894.5611,0.025644
896.4247,0.025493
898.2884,0.025275
900.1521,0.025009
902.0158,0.024814
903.8794,0.024760
905.7431,0.024506
907.6068,0.024201
909.4704,0.024212
911.3341,0.024344
913.1978,0.024612
915.0614,0.024955
916.9251,0.025100
918.7888,0.025083
920.6524,0.025161
922.5161,0.025394
924.3798,0.025545
926.2435,0.025522
928.1071,0.025565
929.9708,0.025670
931.8345,0.025640
933.6981,0.025635
935.5618,0.025719
937.4255,0.025813
939.2891,0.025983
941.1528,0.026288
943.0165,0.026606
944.8801,0.026813
946.7438,0.026956
948.6075,0.027121
950.4711,0.027154
952.3348,0.027018
954.1985,0.027156
956.0622,0.027590
957.9258,0.028049
959.7895,0.028658
961.6532,0.029455
963.5168,0.030279
965.3805,0.030986
967.2442,0.031582
969.1078,0.031926
970.9715,0.032021
972.8352,0.032117
974.6988,0.032242
976.5625,0.032455
978.4262,0.032801
980.2899,0.033231
982.1535,0.033816
984.0172,0.034500
985.8809,0.035060
987.7445,0.035599
989.6082,0.036240
991.4719,0.036908
993.3355,0.037556
995.1992,0.038309
997.0629,0.039064
998.9265,0.039918
1000.7902,0.040724
1002.6539,0.041374
1004.5175,0.042139
1006.3812,0.043214
1008.2449,0.044422
1010.1086,0.045686
1011.9722,0.047102
1013.8359,0.048634
1015.6996,0.050288
1017.5632,0.051745
1019.4269,0.052890
1021.2906,0.053972
1023.1542,0.054943
1025.0179,0.055733
1026.8816,0.056338
1028.7452,0.056957
1030.6089,0.057592
1032.4726,0.058035
1034.3362,0.058334
1036.1999,0.058538
1038.0636,0.058590
1039.9273,0.058660
1041.7909,0.058776
1043.6546,0.058763
1045.5183,0.058613
1047.3819,0.058521
1049.2456,0.058592
1051.1093,0.058694
1052.9729,0.058822
1054.8366,0.058969
1056.7003,0.059112
1058.5639,0.059374
1060.4276,0.059556
1062.2913,0.059651
1064.1550,0.059804
1066.0186,0.060027
1067.8823,0.060247
1069.7460,0.060432
1071.6096,0.060429
1073.4733,0.060164
1075.3370,0.059711
1077.2006,0.058969
1079.0643,0.057918
1080.9280,0.056478
1082.7916,0.054778
1084.6553,0.053107
1086.5190,0.051444
1088.3826,0.049821
1090.2463,0.048411
1092.1100,0.047214
1093.9737,0.046176
1095.8373,0.045350
1097.7010,0.044543
1099.5647,0.043782
1101.4283,0.043244
1103.2920,0.042840
1105.1557,0.042486
1107.0193,0.042213
1108.8830,0.042010
1110.7467,0.041939
1112.6103,0.041867
1114.4740,0.041552
1116.3377,0.041186
1118.2014,0.040853
1120.0650,0.040342
1121.9287,0.039747
1123.7924,0.039274
1125.6560,0.038846
1127.5197,0.038313
1129.3834,0.037700
1131.2470,0.037176
1133.1107,0.036599
1134.9744,0.035820
1136.8380,0.035045
1138.7017,0.034408
1140.5654,0.033937
1142.4290,0.033577
1144.2927,0.033437
1146.1564,0.033482
1148.0201,0.033605
1149.8837,0.033808
1151.7474,0.033964
1153.6111,0.034006
1155.4747,0.033991
1157.3384,0.033900
1159.2021,0.033798
1161.0657,0.033660
1162.9294,0.033351
1164.7931,0.032957
1166.6567,0.032544
1168.5204,0.032012
1170.3841,0.031294
1172.2477,0.030342
1174.1114,0.029153
1175.9751,0.027982
1177.8388,0.026992
1179.7024,0.026257
1181.5661,0.025824
1183.4298,0.025679
1185.2934,0.025725
1187.1571,0.025885
1189.0208,0.026156
1190.8844,0.026574
1192.7481,0.027093
1194.6118,0.027536
1196.4754,0.028101
1198.3391,0.028881
1200.2028,0.029641
1202.0665,0.030355
1203.9301,0.031029
1205.7938,0.031708
1207.6575,0.032401
1209.5211,0.032928
1211.3848,0.033397
1213.2485,0.033918
1215.1121,0.034548
1216.9758,0.035257
1218.8395,0.036022
1220.7031,0.036684
1222.5668,0.037302
1224.4305,0.037817
1226.2941,0.038302
1228.1578,0.038787
1230.0215,0.039131
1231.8852,0.039447
1233.7488,0.039741
1235.6125,0.039839
1237.4762,0.039857
1239.3398,0.039780
1241.2035,0.039594
1243.0672,0.039354
1244.9308,0.039058
1246.7945,0.038690
1248.6582,0.038280
1250.5218,0.037887
1252.3855,0.037481
1254.2492,0.037072
1256.1129,0.036691
1257.9765,0.036442
1259.8402,0.036156
1261.7039,0.035729
1263.5675,0.035279
1265.4312,0.034966
1267.2949,0.034881
1269.1585,0.034848
1271.0222,0.034729
1272.8859,0.034520
1274.7495,0.034286
1276.6132,0.034223
1278.4769,0.034243
1280.3405,0.034290
1282.2042,0.034217
1284.0679,0.034209
1285.9316,0.034274
1287.7952,0.034359
1289.6589,0.034484
1291.5226,0.034542
1293.3862,0.034564
1295.2499,0.034618
1297.1136,0.034775
1298.9772,0.034996
1300.8409,0.035183
1302.7046,0.035234
1304.5682,0.035341
1306.4319,0.035618
1308.2956,0.035802
1310.1592,0.035785
1312.0229,0.035870
1313.8866,0.035893
1315.7503,0.035776
1317.6139,0.035720
1319.4776,0.035500
1321.3413,0.035063
1323.2049,0.034798
1325.0686,0.034562
1326.9323,0.034226
1328.7959,0.034019
1330.6596,0.033953
1332.5233,0.033851
1334.3869,0.033757
1336.2506,0.033733
1338.1143,0.034043
1339.9780,0.034445
1341.8416,0.034343
1343.7053,0.034061
1345.5690,0.034008
1347.4326,0.034089
1349.2963,0.034166
1351.1600,0.034127
1353.0236,0.034273
1354.8873,0.034571
1356.7510,0.034828
1358.6146,0.035096
1360.4783,0.035708
1362.3420,0.036987
1364.2056,0.038089
1366.0693,0.038694
1367.9330,0.039649
1369.7967,0.040340
1371.6603,0.040794
1373.5240,0.041976
1375.3877,0.043129
1377.2513,0.043548
1379.1150,0.044014
1380.9787,0.044334
1382.8423,0.044405
1384.7060,0.044546
1386.5697,0.045281
1388.4333,0.045675
1390.2970,0.044999
1392.1607,0.044708
1394.0244,0.045375
1395.8880,0.045977
1397.7517,0.045886
1399.6154,0.045807
1401.4790,0.045044
1403.3427,0.044434
1405.2064,0.044223
1407.0700,0.043457
1408.9337,0.042518
1410.7974,0.041906
1412.6610,0.041053
1414.5247,0.039915
1416.3884,0.039094
1418.2520,0.039151
1420.1157,0.039079
1421.9794,0.038138
1423.8431,0.037665
1425.7067,0.037282
1427.5704,0.037080
1429.4341,0.037576
1431.2977,0.037938
1433.1614,0.037763
1435.0251,0.038377
1436.8887,0.040345
1438.7524,0.040488
1440.6161,0.039977
1442.4797,0.040058
1444.3434,0.039914
1446.2071,0.040092
1448.0707,0.040665
1449.9344,0.040445
1451.7981,0.039295
1453.6618,0.038174
1455.5254,0.038236
1457.3891,0.039881
1459.2528,0.038944
1461.1164,0.037222
1462.9801,0.036525
1464.8438,0.037030
1466.7074,0.036420
1468.5711,0.034868
1470.4348,0.033746
1472.2984,0.034088
1474.1621,0.034296
1476.0258,0.033609
1477.8895,0.033111
1479.7531,0.033127
1481.6168,0.033837
1483.4805,0.034296
1485.3441,0.034965
1487.2078,0.036762
1489.0715,0.039698
1490.9351,0.042225
1492.7988,0.042615
1494.6625,0.043646
1496.5261,0.047114
1498.3898,0.049939
1500.2535,0.050777
1502.1171,0.050596
1503.9808,0.051000
1505.8445,0.055649
1507.7082,0.062180
1509.5718,0.061881
1511.4355,0.061663
1513.2992,0.062081
1515.1628,0.062538
1517.0265,0.063501
1518.8902,0.063444
1520.7538,0.064545
1522.6175,0.066252
1524.4812,0.065893
1526.3448,0.066689
1528.2085,0.066954
1530.0722,0.066323
1531.9359,0.066473
1533.7995,0.067526
1535.6632,0.066265
1537.5269,0.064708
1539.3905,0.065755
1541.2542,0.067357
1543.1179,0.066261
1544.9815,0.064734
1546.8452,0.062705
1548.7089,0.060893
1550.5725,0.059334
1552.4362,0.057311
1554.2999,0.055151
1556.1635,0.053044
1558.0272,0.052596
1559.8909,0.053125
1561.7546,0.050580
1563.6182,0.048320
1565.4819,0.046741
1567.3456,0.045392
1569.2092,0.044818
1571.0729,0.043738
1572.9366,0.041876
1574.8002,0.041082
1576.6639,0.041407
1578.5276,0.040633
1580.3912,0.039541
1582.2549,0.039013
1584.1186,0.038757
1585.9822,0.038539
1587.8459,0.038441
1589.7096,0.038897
1591.5733,0.039588
1593.4369,0.040255
1595.3006,0.041033
1597.1643,0.042027
1599.0279,0.042994
1600.8916,0.044212
1602.7553,0.045776
1604.6189,0.047489
1606.4826,0.049458
1608.3463,0.051431
1610.2099,0.053310
1612.0736,0.054960
1613.9373,0.056278
1615.8010,0.059012
1617.6646,0.062476
1619.5283,0.063133
1621.3920,0.064005
1623.2556,0.066652
1625.1193,0.068360
1626.9830,0.069230
1628.8466,0.070217
1630.7103,0.069941
1632.5740,0.069263
1634.4376,0.069669
1636.3013,0.070993
1638.1650,0.069889
1640.0286,0.068317
1641.8923,0.066865
1643.7560,0.065280
1645.6197,0.064319
1647.4833,0.063443
1649.3470,0.061095
1651.2107,0.058628
1653.0743,0.057608
1654.9380,0.056090
1656.8017,0.053648
1658.6653,0.051032
1660.5290,0.048536
1662.3927,0.046327
1664.2563,0.044221
1666.1200,0.041987
1667.9837,0.040046
1669.8474,0.038253
1671.7110,0.036016
1673.5747,0.034137
1675.4384,0.032656
1677.3020,0.030854
1679.1657,0.028856
1681.0294,0.026715
1682.8930,0.024647
1684.7567,0.022655
1686.6204,0.020918
1688.4840,0.019052
1690.3477,0.017031
1692.2114,0.014994
1694.0750,0.012833
1695.9387,0.010389
1697.8024,0.008755
1699.6661,0.007026
1701.5297,0.005337
1703.3934,0.004157
1705.2571,0.003129
1707.1207,0.002233
1708.9844,0.001509
1710.8481,0.000837
1712.7117,0.000283
1714.5754,-0.000179
1716.4391,-0.000653
1718.3027,-0.001020
1720.1664,-0.001290
1722.0301,-0.001682
1723.8937,-0.001656
1725.7574,-0.001662
1727.6211,-0.001961
1729.4848,-0.002254
1731.3484,-0.002248
1733.2121,-0.002566
1735.0758,-0.002842
1736.9394,-0.002904
1738.8031,-0.002960
1740.6668,-0.002882
1742.5304,-0.002877
1744.3941,-0.003255
1746.2578,-0.003486
1748.1214,-0.003691
1749.9851,-0.004154
1751.8488,-0.004317
1753.7125,-0.004356
1755.5761,-0.004805
1757.4398,-0.005083
1759.3035,-0.005079
1761.1671,-0.005259
1763.0308,-0.005323
1764.8945,-0.005278
1766.7581,-0.005431
1768.6218,-0.005551
1770.4855,-0.005699
1772.3491,-0.005812
1774.2128,-0.005809
1776.0765,-0.005862
1777.9401,-0.005842
1779.8038,-0.005763
1781.6675,-0.005678
1783.5312,-0.005760
1785.3948,-0.005900
1787.2585,-0.005912
1789.1222,-0.005851
1790.9858,-0.005803
1792.8495,-0.005826
1794.7132,-0.005777
1796.5768,-0.005801
1798.4405,-0.005897
1800.3042,-0.005982
1802.1678,-0.005884
1804.0315,-0.005892
1805.8952,-0.006002
1807.7589,-0.006053
1809.6225,-0.006038
1811.4862,-0.005916
1813.3499,-0.005892
1815.2135,-0.006087
1817.0772,-0.006023
1818.9409,-0.005696
1820.8045,-0.005753
1822.6682,-0.005807
1824.5319,-0.005923
1826.3955,-0.005853
1828.2592,-0.005712
1830.1229,-0.005816
1831.9865,-0.005729
1833.8502,-0.005680
1835.7139,-0.005750
1837.5776,-0.005727
1839.4412,-0.005821
1841.3049,-0.006062
1843.1686,-0.006204
1845.0322,-0.005742
1846.8959,-0.005438
1848.7596,-0.005636
1850.6232,-0.005746
1852.4869,-0.005771
1854.3506,-0.006111
1856.2142,-0.006390
1858.0779,-0.006117
1859.9416,-0.005738
1861.8052,-0.005622
1863.6689,-0.005512
1865.5326,-0.005386
1867.3963,-0.005451
1869.2599,-0.005673
1871.1236,-0.005633
1872.9873,-0.005220
1874.8509,-0.005185
1876.7146,-0.005212
1878.5783,-0.005099
1880.4419,-0.005132
1882.3056,-0.005084
1884.1693,-0.004903
1886.0329,-0.005284
1887.8966,-0.005409
1889.7603,-0.005035
1891.6240,-0.005154
1893.4876,-0.005371
1895.3513,-0.005500
1897.2150,-0.005524
1899.0786,-0.005386
1900.9423,-0.005563
1902.8060,-0.005438
1904.6696,-0.004997
1906.5333,-0.004860
1908.3970,-0.004988
1910.2606,-0.005041
1912.1243,-0.004972
1913.9880,-0.004755
1915.8516,-0.004840
1917.7153,-0.005268
1919.5790,-0.005323
1921.4427,-0.005050
1923.3063,-0.004797
1925.1700,-0.004042
1927.0337,-0.003889
1928.8973,-0.004641
1930.7610,-0.004604
1932.6247,-0.004225
1934.4883,-0.004454
1936.3520,-0.004441
1938.2157,-0.004402
1940.0793,-0.004576
1941.9430,-0.004659
1943.8067,-0.004423
1945.6704,-0.003903
1947.5340,-0.003938
1949.3977,-0.004250
1951.2614,-0.004360
1953.1250,-0.004018
1954.9887,-0.004341
1956.8524,-0.004540
1958.7160,-0.004232
1960.5797,-0.003694
1962.4434,-0.002855
1964.3070,-0.002712
1966.1707,-0.004078
1968.0344,-0.004260
1969.8980,-0.003132
1971.7617,-0.003609
1973.6254,-0.002614
1975.4891,-0.001086
1977.3527,-0.002354
1979.2164,-0.003242
1981.0801,-0.003078
1982.9437,-0.002830
1984.8074,-0.002402
1986.6711,-0.002364
1988.5347,-0.002490
1990.3984,-0.002966
1992.2621,-0.003284
1994.1257,-0.002748
1995.9894,-0.003726
1997.8531,-0.004388
1999.7167,-0.003064
2001.5804,-0.002250
2003.4441,-0.002085
2005.3078,-0.002182
2007.1714,-0.002373
2009.0351,-0.002288
2010.8988,-0.003680
2012.7624,-0.004857
2014.6261,-0.003712
2016.4898,-0.002595
2018.3534,-0.002852
2020.2171,-0.003141
2022.0808,-0.003112
2023.9444,-0.002635
2025.8081,-0.001358
2027.6718,-0.000518
2029.5355,-0.001513
2031.3991,-0.003292
2033.2628,-0.003554
2035.1265,-0.002629
2036.9901,-0.002778
2038.8538,-0.002706
2040.7175,-0.001323
2042.5811,-0.001087
2044.4448,-0.001314
2046.3085,-0.001030
2048.1721,-0.000782
2050.0358,-0.000882
2051.8995,-0.001286
2053.7631,-0.001563
2055.6268,-0.001748
2057.4905,-0.001271
2059.3542,-0.000724
2061.2178,-0.000814
2063.0815,-0.001114
2064.9452,-0.001224
2066.8088,-0.001652
2068.6725,-0.002231
2070.5362,-0.002313
2072.3998,-0.001783
2074.2635,-0.000884
2076.1272,-0.000639
2077.9908,-0.001249
2079.8545,-0.002142
2081.7182,-0.002315
2083.5819,-0.002186
2085.4455,-0.002169
2087.3092,-0.001925
2089.1729,-0.002060
2091.0365,-0.002225
2092.9002,-0.002228
2094.7639,-0.002631
2096.6275,-0.002792
2098.4912,-0.002643
2100.3549,-0.002097
2102.2185,-0.001412
2104.0822,-0.001311
2105.9459,-0.002183
2107.8095,-0.002724
2109.6732,-0.002478
2111.5369,-0.002477
2113.4006,-0.002236
2115.2642,-0.002297
2117.1279,-0.002668
2118.9916,-0.002261
2120.8552,-0.001714
2122.7189,-0.001883
2124.5826,-0.002427
2126.4462,-0.002932
2128.3099,-0.002965
2130.1736,-0.002935
2132.0372,-0.003002
2133.9009,-0.002139
2135.7646,-0.001699
2137.6282,-0.002647
2139.4919,-0.003211
2141.3556,-0.003147
2143.2193,-0.002712
2145.0829,-0.002262
2146.9466,-0.002484
2148.8103,-0.003101
2150.6739,-0.002720
2152.5376,-0.001230
2154.4013,-0.001121
2156.2649,-0.002991
2158.1286,-0.002968
2159.9923,0.000212
2161.8559,0.001953
2163.7196,0.000924
2165.5833,-0.000562
2167.4470,-0.000550
2169.3106,0.000689
2171.1743,0.000494
2173.0380,-0.000711
2174.9016,-0.000934
2176.7653,-0.001424
2178.6290,-0.001531
2180.4926,-0.001203
2182.3563,-0.000825
2184.2200,0.000825
2186.0836,0.001789
2187.9473,0.000808
2189.8110,-0.000206
2191.6746,0.000129
2193.5383,-0.000263
2195.4020,-0.001411
2197.2657,-0.001380
2199.1293,-0.001099
2200.9930,-0.001094
2202.8567,-0.000611
2204.7203,-0.000123
2206.5840,-0.000263
2208.4477,-0.000558
2210.3113,-0.000335
2212.1750,-0.000082
2214.0387,-0.000855
2215.9023,-0.001537
2217.7660,-0.000882
2219.6297,-0.000611
2221.4934,-0.000486
2223.3570,-0.000515
2225.2207,-0.001182
2227.0844,-0.000908
2228.9480,-0.000279
2230.8117,-0.000273
2232.6754,-0.000362
2234.5390,-0.000316
2236.4027,-0.001085
2238.2664,-0.001987
2240.1300,-0.001999
2241.9937,-0.001656
2243.8574,-0.001277
2245.7210,-0.000995
2247.5847,-0.000797
2249.4484,-0.001226
2251.3121,-0.001612
2253.1757,-0.001086
2255.0394,-0.000830
2256.9031,-0.001402
2258.7667,-0.001780
2260.6304,-0.001520
2262.4941,-0.001068
2264.3577,-0.001081
2266.2214,-0.001496
2268.0851,-0.001246
2269.9487,-0.000872
2271.8124,-0.001060
2273.6761,-0.001295
2275.5397,-0.001604
2277.4034,-0.001549
2279.2671,-0.001138
2281.1308,-0.001150
2282.9944,-0.001047
2284.8581,-0.000690
2286.7218,-0.000856
2288.5854,-0.001012
2290.4491,-0.000986
2292.3128,-0.001366
2294.1764,-0.001681
2296.0401,-0.001612
2297.9038,-0.001541
2299.7674,-0.001616
2301.6311,-0.001713
2303.4948,-0.001546
2305.3585,-0.001601
2307.2221,-0.001875
2309.0858,-0.001601
2310.9495,-0.001319
2312.8131,-0.001208
2314.6768,-0.001106
2316.5405,-0.001206
2318.4041,-0.001697
2320.2678,-0.002222
2322.1315,-0.002023
2323.9951,-0.001487
2325.8588,-0.001626
2327.7225,-0.002146
2329.5861,-0.002258
2331.4498,-0.002387
2333.3135,-0.002602
2335.1772,-0.002535
2337.0408,-0.002566
2338.9045,-0.002314
2340.7682,-0.002166
2342.6318,-0.002564
2344.4955,-0.002656
2346.3592,-0.002376
2348.2228,-0.002229
2350.0865,-0.002383
2351.9502,-0.002234
2353.8138,-0.002048
2355.6775,-0.002415
2357.5412,-0.002812
2359.4049,-0.003086
2361.2685,-0.002960
2363.1322,-0.002901
2364.9959,-0.002934
2366.8595,-0.002637
2368.7232,-0.002173
2370.5869,-0.001643
2372.4505,-0.001699
2374.3142,-0.002259
2376.1779,-0.002308
2378.0415,-0.002127
2379.9052,-0.002166
2381.7689,-0.002213
2383.6325,-0.002366
2385.4962,-0.002359
2387.3599,-0.002289
2389.2236,-0.002499
2391.0872,-0.002564
2392.9509,-0.002299
2394.8146,-0.002066
2396.6782,-0.002192
2398.5419,-0.002318
2400.4056,-0.002252
2402.2692,-0.002232
2404.1329,-0.002275
2405.9966,-0.002227
2407.8602,-0.002184
2409.7239,-0.002172
2411.5876,-0.001905
2413.4512,-0.001745
2415.3149,-0.001780
2417.1786,-0.001812
2419.0423,-0.001866
2420.9059,-0.001551
2422.7696,-0.001428
2424.6333,-0.001500
2426.4969,-0.001491
2428.3606,-0.001381
2430.2243,-0.001218
2432.0879,-0.001262
2433.9516,-0.001548
2435.8153,-0.001730
2437.6789,-0.001626
2439.5426,-0.001473
2441.4063,-0.001344
2443.2700,-0.001462
2445.1336,-0.001517
2446.9973,-0.001010
2448.8610,-0.000851
2450.7246,-0.000778
2452.5883,-0.000553
2454.4520,-0.000840
2456.3156,-0.000956
2458.1793,-0.000825
2460.0430,-0.001096
2461.9066,-0.001340
2463.7703,-0.001383
2465.6340,-0.001197
2467.4976,-0.001065
2469.3613,-0.000846
2471.2250,-0.000686
2473.0887,-0.000782
2474.9523,-0.000773
2476.8160,-0.000780
2478.6797,-0.000988
2480.5433,-0.001069
2482.4070,-0.000983
2484.2707,-0.001066
2486.1343,-0.000989
2487.9980,-0.000727
2489.8617,-0.000886
2491.7253,-0.000913
2493.5890,-0.000715
2495.4527,-0.000951
2497.3164,-0.000809
2499.1800,-0.000506
2501.0437,-0.000595
2502.9074,-0.000631
2504.7710,-0.000522
2506.6347,-0.000372
2508.4984,-0.000538
2510.3620,-0.000643
2512.2257,-0.000419
2514.0894,-0.000270
2515.9530,-0.000234
2517.8167,-0.000099
2519.6804,0.000007
2521.5440,-0.000028
2523.4077,-0.000407
2525.2714,-0.000618
2527.1351,-0.000413
2528.9987,-0.000232
2530.8624,-0.000120
2532.7261,-0.000243
2534.5897,-0.000323
2536.4534,-0.000248
2538.3171,-0.000343
2540.1807,-0.000217
2542.0444,0.000053
2543.9081,0.000018
2545.7717,0.000088
2547.6354,0.000088
2549.4991,-0.000003
2551.3627,-0.000033
2553.2264,0.000098
2555.0901,0.000168
2556.9538,0.000090
2558.8174,-0.000092
2560.6811,-0.000076
2562.5448,0.000308
2564.4084,0.000413
2566.2721,0.000232
2568.1358,0.000056
2569.9994,-0.000061
2571.8631,-0.000055
2573.7268,0.000194
2575.5904,0.000608
2577.4541,0.000648
2579.3178,0.000664
2581.1815,0.000885
2583.0451,0.000687
2584.9088,0.000463
2586.7725,0.000393
2588.6361,0.000359
2590.4998,0.000401
2592.3635,0.000394
2594.2271,0.000560
2596.0908,0.000921
2597.9545,0.000781
2599.8181,0.000550
2601.6818,0.000603
2603.5455,0.000768
2605.4091,0.000952
2607.2728,0.001073
2609.1365,0.001076
2611.0002,0.001022
2612.8638,0.000949
2614.7275,0.001122
2616.5912,0.001275
2618.4548,0.001165
2620.3185,0.001124
2622.1822,0.001210
2624.0458,0.001131
2625.9095,0.001177
2627.7732,0.001495
2629.6368,0.001644
2631.5005,0.001743
2633.3642,0.001705
2635.2279,0.001576
2637.0915,0.001514
2638.9552,0.001424
2640.8189,0.001472
2642.6825,0.001524
2644.5462,0.001678
2646.4099,0.001891
2648.2735,0.001907
2650.1372,0.001821
2652.0009,0.001835
2653.8645,0.001721
2655.7282,0.001512
2657.5919,0.001471
2659.4555,0.001495
2661.3192,0.001378
2663.1829,0.001363
2665.0466,0.001439
2666.9102,0.001567
2668.7739,0.001636
2670.6376,0.001618
2672.5012,0.001623
2674.3649,0.001561
2676.2286,0.001619
2678.0922,0.001713
2679.9559,0.001645
2681.8196,0.001680
2683.6832,0.001864
2685.5469,0.002091
2687.4106,0.002100
2689.2742,0.001937
2691.1379,0.001986
2693.0016,0.002129
2694.8653,0.002190
2696.7289,0.002289
2698.5926,0.002335
2700.4563,0.002223
2702.3199,0.002216
2704.1836,0.002419
2706.0473,0.002630
2707.9109,0.002752
2709.7746,0.002751
2711.6383,0.002770
2713.5019,0.002991
2715.3656,0.002950
2717.2293,0.002879
2719.0930,0.003073
2720.9566,0.003262
2722.8203,0.003273
2724.6840,0.003109
2726.5476,0.003062
2728.4113,0.003259
2730.2750,0.003515
2732.1386,0.003536
2734.0023,0.003612
2735.8660,0.003735
2737.7296,0.003659
2739.5933,0.003696
2741.4570,0.003885
2743.3206,0.003966
2745.1843,0.004077
2747.0480,0.004209
2748.9117,0.004424
2750.7753,0.004423
2752.6390,0.004241
2754.5027,0.004379
2756.3663,0.004581
2758.2300,0.004684
2760.0937,0.004943
2761.9573,0.005075
2763.8210,0.005032
2765.6847,0.005006
2767.5483,0.005099
2769.4120,0.005175
2771.2757,0.005194
2773.1394,0.005247
2775.0030,0.005483
2776.8667,0.005692
2778.7304,0.005864
2780.5940,0.005820
2782.4577,0.005929
2784.3214,0.006335
2786.1850,0.006492
2788.0487,0.006560
2789.9124,0.006682
2791.7760,0.006696
2793.6397,0.006689
2795.5034,0.006792
2797.3670,0.007044
2799.2307,0.007044
2801.0944,0.006944
2802.9581,0.007075
2804.8217,0.007328
2806.6854,0.007735
2808.5491,0.008000
2810.4127,0.008089
2812.2764,0.008096
2814.1401,0.008358
2816.0037,0.008571
2817.8674,0.008680
2819.7311,0.008757
2821.5947,0.008845
2823.4584,0.008989
2825.3221,0.009177
2827.1857,0.009389
2829.0494,0.009586
2830.9131,0.009711
2832.7768,0.010026
2834.6404,0.010401
2836.5041,0.010537
2838.3678,0.010934
2840.2314,0.011523
2842.0951,0.011913
2843.9588,0.012337
2845.8224,0.012975
2847.6861,0.013626
2849.5498,0.014043
2851.4134,0.014370
2853.2771,0.014478
2855.1408,0.014284
2857.0045,0.014086
2858.8681,0.014076
2860.7318,0.014066
2862.5955,0.014225
2864.4591,0.014436
2866.3228,0.014714
2868.1865,0.014961
2870.0501,0.015163
2871.9138,0.015405
2873.7775,0.015623
2875.6411,0.015709
2877.5048,0.015552
2879.3685,0.015425
2881.2321,0.015259
2883.0958,0.015065
2884.9595,0.015128
2886.8232,0.015377
2888.6868,0.015612
2890.5505,0.015781
2892.4142,0.015900
2894.2778,0.016128
2896.1415,0.016338
2898.0052,0.016522
2899.8688,0.016882
2901.7325,0.017250
2903.5962,0.017577
2905.4598,0.017845
2907.3235,0.018437
2909.1872,0.018911
2911.0509,0.019140
2912.9145,0.019439
2914.7782,0.019946
2916.6419,0.020541
2918.5055,0.020945
2920.3692,0.021131
2922.2329,0.021168
2924.0965,0.020988
2925.9602,0.020926
2927.8239,0.020980
2929.6875,0.020909
2931.5512,0.020427
2933.4149,0.020153
2935.2785,0.019879
2937.1422,0.019466
2939.0059,0.019248
2940.8696,0.019146
2942.7332,0.018853
2944.5969,0.018763
2946.4606,0.018621
2948.3242,0.018449
2950.1879,0.018786
2952.0516,0.018976
2953.9152,0.018792
2955.7789,0.018665
2957.6426,0.018810
2959.5062,0.018955
2961.3699,0.018775
2963.2336,0.018532
2965.0972,0.018297
2966.9609,0.018114
2968.8246,0.017598
2970.6883,0.016889
2972.5519,0.016650
2974.4156,0.016362
2976.2793,0.015949
2978.1429,0.015857
2980.0066,0.015761
2981.8703,0.015377
2983.7339,0.014778
2985.5976,0.014743
2987.4613,0.014760
2989.3249,0.014444
2991.1886,0.014416
2993.0523,0.014337
2994.9160,0.014184
2996.7796,0.014288
2998.6433,0.014402
3000.5070,0.014286
3002.3706,0.014109
3004.2343,0.014285
3006.0980,0.014604
3007.9616,0.014929
3009.8253,0.015046
3011.6890,0.015049
3013.5526,0.015196
3015.4163,0.015361
3017.2800,0.015517
3019.1436,0.015607
3021.0073,0.015726
3022.8710,0.016027
3024.7347,0.016227
3026.5983,0.016293
3028.4620,0.016532
3030.3257,0.016977
3032.1893,0.017300
3034.0530,0.017329
3035.9167,0.017415
3037.7803,0.017713
3039.6440,0.017999
3041.5077,0.018136
3043.3713,0.018065
3045.2350,0.018225
3047.0987,0.018684
3048.9624,0.018751
3050.8260,0.018756
3052.6897,0.019122
3054.5534,0.019431
3056.4170,0.019647
3058.2807,0.019677
3060.1444,0.019443
3062.0080,0.019677
3063.8717,0.020038
3065.7354,0.020329
3067.5990,0.020858
3069.4627,0.020704
3071.3264,0.020356
3073.1900,0.020527
3075.0537,0.020619
3076.9174,0.020401
3078.7811,0.020491
3080.6447,0.020793
3082.5084,0.021042
3084.3721,0.021045
3086.2357,0.020992
3088.0994,0.020785
3089.9631,0.020544
3091.8267,0.020590
3093.6904,0.020767
3095.5541,0.020705
3097.4177,0.020820
3099.2814,0.020890
3101.1451,0.020836
3103.0087,0.020721
3104.8724,0.020779
3106.7361,0.021093
3108.5998,0.021257
3110.4634,0.021206
3112.3271,0.021365
3114.1908,0.021745
3116.0544,0.021825
3117.9181,0.021671
3119.7818,0.021745
3121.6454,0.021707
3123.5091,0.021644
3125.3728,0.022072
3127.2364,0.022303
3129.1001,0.022530
3130.9638,0.022738
3132.8275,0.022805
3134.6911,0.023166
3136.5548,0.023450
3138.4185,0.023540
3140.2821,0.023622
3142.1458,0.023734
3144.0095,0.023772
3145.8731,0.023896
3147.7368,0.024159
3149.6005,0.024696
3151.4641,0.024912
3153.3278,0.025254
3155.1915,0.025538
3157.0551,0.025727
3158.9188,0.025820
3160.7825,0.026151
3162.6462,0.026286
3164.5098,0.026616
3166.3735,0.026951
3168.2372,0.027210
3170.1008,0.027391
3171.9645,0.027576
3173.8282,0.027850
3175.6918,0.028125
3177.5555,0.028216
3179.4192,0.028238
3181.2828,0.028334
3183.1465,0.028741
3185.0102,0.029187
3186.8739,0.029546
3188.7375,0.029559
3190.6012,0.029655
3192.4649,0.029747
3194.3285,0.029978
3196.1922,0.030084
3198.0559,0.030293
3199.9195,0.030347
3201.7832,0.030742
3203.6469,0.030892
3205.5105,0.031022
3207.3742,0.031126
3209.2379,0.031280
3211.1015,0.031416
3212.9652,0.031515
3214.8289,0.031201
3216.6926,0.031246
3218.5562,0.031409
3220.4199,0.032083
3222.2836,0.032618
3224.1472,0.032599
3226.0109,0.032294
3227.8746,0.031988
3229.7382,0.032084
3231.6019,0.032441
3233.4656,0.032803
3235.3292,0.033012
3237.1929,0.033036
3239.0566,0.033254
3240.9202,0.033610
3242.7839,0.033723
3244.6476,0.033644
3246.5113,0.034160
3248.3749,0.034658
3250.2386,0.034622
3252.1023,0.034631
3253.9659,0.035097
3255.8296,0.035310
3257.6933,0.035095
3259.5569,0.034685
3261.4206,0.035068
3263.2843,0.035397
3265.1479,0.035527
3267.0116,0.035721
3268.8753,0.035837
3270.7390,0.035611
3272.6026,0.035651
3274.4663,0.035501
3276.3300,0.035325
3278.1936,0.035423
3280.0573,0.035196
3281.9210,0.035331
3283.7846,0.035687
3285.6483,0.035521
3287.5120,0.035416
3289.3756,0.035206
3291.2393,0.034839
3293.1030,0.034493
3294.9666,0.034157
3296.8303,0.033918
3298.6940,0.034157
3300.5577,0.034196
3302.4213,0.033782
3304.2850,0.033396
3306.1487,0.032959
3308.0123,0.032424
3309.8760,0.032142
3311.7397,0.031659
3313.6033,0.031420
3315.4670,0.031514
3317.3307,0.032095
3319.1943,0.031671
3321.0580,0.030927
3322.9217,0.030785
3324.7854,0.030758
3326.6490,0.030751
3328.5127,0.030748
3330.3764,0.030624
3332.2400,0.030378
3334.1037,0.030085
3335.9674,0.029956
3337.8310,0.029986
3339.6947,0.029685
3341.5584,0.029571
3343.4220,0.029737
3345.2857,0.029286
3347.1494,0.028902
3349.0130,0.028765
3350.8767,0.028698
3352.7404,0.028562
3354.6041,0.028512
3356.4677,0.028172
3358.3314,0.027913
3360.1951,0.027687
3362.0587,0.027491
3363.9224,0.027192
3365.7861,0.027399
3367.6497,0.027440
3369.5134,0.027262
3371.3771,0.026970
3373.2407,0.026641
3375.1044,0.026349
3376.9681,0.026605
3378.8317,0.026609
3380.6954,0.025919
3382.5591,0.025276
3384.4228,0.025639
3386.2864,0.026113
3388.1501,0.026413
3390.0138,0.025847
3391.8774,0.025330
3393.7411,0.025723
3395.6048,0.025713
3397.4684,0.025369
3399.3321,0.025005
3401.1958,0.024480
3403.0594,0.024020
3404.9231,0.023828
3406.7868,0.023899
3408.6505,0.023864
3410.5141,0.024089
3412.3778,0.023898
3414.2415,0.023469
3416.1051,0.023305
3417.9688,0.023205
3419.8325,0.023022
3421.6961,0.022767
3423.5598,0.022958
3425.4235,0.023093
3427.2871,0.022314
3429.1508,0.021552
3431.0145,0.021527
3432.8781,0.021718
3434.7418,0.021434
3436.6055,0.021122
3438.4692,0.020854
3440.3328,0.021012
3442.1965,0.021397
3444.0602,0.021224
3445.9238,0.020390
3447.7875,0.020332
3449.6512,0.020614
3451.5148,0.020155
3453.3785,0.019371
3455.2422,0.019032
3457.1058,0.019083
3458.9695,0.018726
3460.8332,0.018062
3462.6969,0.018050
3464.5605,0.017986
3466.4242,0.018197
3468.2879,0.017856
3470.1515,0.016931
3472.0152,0.016945
3473.8789,0.017417
3475.7425,0.017185
3477.6062,0.016603
3479.4699,0.016321
3481.3335,0.016223
3483.1972,0.016153
3485.0609,0.015845
3486.9245,0.015012
3488.7882,0.014529
3490.6519,0.014702
3492.5156,0.014596
3494.3792,0.014118
3496.2429,0.013782
3498.1066,0.013517
3499.9702,0.013207
3501.8339,0.012711
3503.6976,0.012791
3505.5612,0.013078
3507.4249,0.012699
3509.2886,0.012355
3511.1522,0.011989
3513.0159,0.011577
3514.8796,0.011860
3516.7432,0.012043
3518.6069,0.011780
3520.4706,0.011102
3522.3343,0.010387
3524.1979,0.010261
3526.0616,0.010268
3527.9253,0.009976
3529.7889,0.009494
3531.6526,0.008706
3533.5163,0.008355
3535.3799,0.008436
3537.2436,0.008186
3539.1073,0.008092
3540.9709,0.007844
3542.8346,0.007169
3544.6983,0.006785
3546.5620,0.007069
3548.4256,0.006662
3550.2893,0.005971
3552.1530,0.005669
3554.0166,0.005561
3555.8803,0.005613
3557.7440,0.005728
3559.6076,0.005191
3561.4713,0.004650
3563.3350,0.004473
3565.1986,0.003572
3567.0623,0.002744
3568.9260,0.002879
3570.7896,0.003280
3572.6533,0.003073
3574.5170,0.002590
3576.3807,0.002477
3578.2443,0.002503
3580.1080,0.001847
3581.9717,0.001326
3583.8353,0.001109
3585.6990,0.000733
3587.5627,0.000434
3589.4263,0.000699
3591.2900,0.000863
3593.1537,0.000429
3595.0173,-0.000409
3596.8810,-0.001334
3598.7447,-0.001762
3600.6084,-0.001410
3602.4720,-0.001295
3604.3357,-0.001665
3606.1994,-0.001962
3608.0630,-0.002608
3609.9267,-0.003253
3611.7904,-0.002974
3613.6540,-0.002936
3615.5177,-0.003291
3617.3814,-0.003752
3619.2450,-0.004304
3621.1087,-0.004253
3622.9724,-0.003839
3624.8360,-0.003715
3626.6997,-0.004179
3628.5634,-0.004866
3630.4271,-0.004706
3632.2907,-0.004694
3634.1544,-0.005159
3636.0181,-0.005333
3637.8817,-0.005700
3639.7454,-0.006360
3641.6091,-0.006317
3643.4727,-0.006299
3645.3364,-0.006653
3647.2001,-0.006743
3649.0637,-0.007045
3650.9274,-0.007527
3652.7911,-0.007551
3654.6547,-0.007630
3656.5184,-0.007851
3658.3821,-0.007732
3660.2458,-0.007831
3662.1094,-0.008208
3663.9731,-0.008387
3665.8368,-0.008263
3667.7004,-0.008252
3669.5641,-0.008666
3671.4278,-0.009041
3673.2914,-0.008995
3675.1551,-0.009414
3677.0188,-0.009607
3678.8824,-0.009134
3680.7461,-0.009190
3682.6098,-0.009410
3684.4735,-0.009357
3686.3371,-0.009453
3688.2008,-0.010005
3690.0645,-0.010119
3691.9281,-0.009619
3693.7918,-0.009563
3695.6555,-0.009710
3697.5191,-0.009864
3699.3828,-0.009832
3701.2465,-0.009672
3703.1101,-0.009797
3704.9738,-0.009805
3706.8375,-0.009523
3708.7011,-0.009501
3710.5648,-0.010127
3712.4285,-0.010977
3714.2922,-0.010632
3716.1558,-0.010132
3718.0195,-0.010138
3719.8832,-0.009759
3721.7468,-0.009536
3723.6105,-0.009896
3725.4742,-0.010178
3727.3378,-0.010231
3729.2015,-0.009992
3731.0652,-0.009694
3732.9288,-0.009914
3734.7925,-0.010481
3736.6562,-0.010452
3738.5199,-0.010199
3740.3835,-0.009936
3742.2472,-0.009784
3744.1109,-0.010602
3745.9745,-0.010903
3747.8382,-0.010016
3749.7019,-0.010250
3751.5655,-0.010815
3753.4292,-0.010145
3755.2929,-0.009644
3757.1565,-0.009915
3759.0202,-0.010433
3760.8839,-0.010416
3762.7475,-0.009911
3764.6112,-0.009883
3766.4749,-0.010010
3768.3386,-0.009977
3770.2022,-0.010001
3772.0659,-0.009687
3773.9296,-0.009517
3775.7932,-0.009999
3777.6569,-0.010414
3779.5206,-0.010655
3781.3842,-0.010792
3783.2479,-0.010439
3785.1116,-0.010093
3786.9752,-0.009901
3788.8389,-0.009570
3790.7026,-0.009582
3792.5662,-0.010005
3794.4299,-0.010053
3796.2936,-0.009863
3798.1573,-0.009859
3800.0209,-0.010028
3801.8846,-0.010369
3803.7483,-0.010074
3805.6119,-0.009700
3807.4756,-0.010171
3809.3393,-0.010382
3811.2029,-0.010021
3813.0666,-0.009690
3814.9303,-0.009649
3816.7939,-0.009870
3818.6576,-0.009825
3820.5213,-0.009935
3822.3850,-0.010128
3824.2486,-0.009775
3826.1123,-0.009667
3827.9760,-0.009749
3829.8396,-0.009783
3831.7033,-0.010107
3833.5670,-0.010133
3835.4306,-0.009855
3837.2943,-0.009874
3839.1580,-0.010057
3841.0216,-0.010221
3842.8853,-0.010092
3844.7490,-0.009887
3846.6126,-0.009902
3848.4763,-0.010065
3850.3400,-0.009934
3852.2037,-0.009801
3854.0673,-0.010054
3855.9310,-0.009706
3857.7947,-0.009435
3859.6583,-0.009753
3861.5220,-0.010104
3863.3857,-0.010380
3865.2493,-0.010343
3867.1130,-0.010094
3868.9767,-0.010053
3870.8403,-0.010103
3872.7040,-0.009857
3874.5677,-0.009797
3876.4314,-0.009626
3878.2950,-0.009662
3880.1587,-0.009854
3882.0224,-0.009684
3883.8860,-0.009962
3885.7497,-0.010345
3887.6134,-0.009903
3889.4770,-0.009560
3891.3407,-0.009847
3893.2044,-0.009997
3895.0680,-0.010005
3896.9317,-0.009926
3898.7954,-0.009947
3900.6590,-0.009995
3902.5227,-0.009566
3904.3864,-0.009496
3906.2501,-0.009689
3908.1137,-0.009651
3909.9774,-0.009690
3911.8411,-0.009557
3913.7047,-0.009591
3915.5684,-0.009858
3917.4321,-0.009881
3919.2957,-0.009648
3921.1594,-0.009604
3923.0231,-0.009683
3924.8867,-0.009560
3926.7504,-0.009409
3928.6141,-0.009390
3930.4777,-0.009868
3932.3414,-0.010208
3934.2051,-0.009588
3936.0688,-0.009021
3937.9324,-0.009341
3939.7961,-0.009599
3941.6598,-0.009643
3943.5234,-0.009683
3945.3871,-0.009464
3947.2508,-0.009431
3949.1144,-0.009617
3950.9781,-0.009326
3952.8418,-0.009122
3954.7054,-0.009416
3956.5691,-0.009722
3958.4328,-0.009627
3960.2965,-0.009241
3962.1601,-0.008928
3964.0238,-0.009148
3965.8875,-0.009219
3967.7511,-0.009303
3969.6148,-0.009793
3971.4785,-0.009722
3973.3421,-0.009321
3975.2058,-0.009320
3977.0695,-0.009457
3978.9331,-0.009534
3980.7968,-0.009426
3982.6605,-0.009637
3984.5241,-0.009969
3986.3878,-0.009782
3988.2515,-0.009339
3990.1152,-0.009212
3991.9788,-0.009306
3993.8425,-0.009568
3995.7062,-0.009590
3997.5698,-0.009130
3999.4335,-0.009140
