Wavenumber,Intensity
650.4205,0.065441
652.2841,0.065457
654.1478,0.065775
656.0115,0.065348
657.8751,0.063776
659.7388,0.062591
661.6025,0.062492
663.4661,0.062150
665.3298,0.061141
667.1935,0.060209
669.0571,0.060401
670.9208,0.060134
672.7845,0.060262
674.6481,0.060157
676.5118,0.059367
678.3755,0.057964
680.2392,0.056778
682.1028,0.056805
683.9665,0.057072
685.8302,0.056817
687.6938,0.056475
689.5575,0.055529
691.4212,0.054638
693.2848,0.053970
695.1485,0.053949
697.0122,0.054636
698.8758,0.054414
700.7395,0.053516
702.6032,0.052844
704.4669,0.052337
706.3305,0.052317
708.1942,0.051735
710.0579,0.050562
711.9215,0.049737
713.7852,0.049124
715.6489,0.048222
717.5125,0.047580
719.3762,0.047678
721.2399,0.047450
723.1035,0.046774
724.9672,0.045927
726.8309,0.045133
728.6945,0.044654
730.5582,0.044056
732.4219,0.043623
734.2856,0.043335
736.1492,0.043221
738.0129,0.043380
739.8766,0.043611
741.7402,0.043680
743.6039,0.043360
745.4676,0.042993
747.3312,0.042763
749.1949,0.042703
751.0586,0.042510
752.9222,0.041697
754.7859,0.040732
756.6496,0.039987
758.5132,0.039858
760.3769,0.040313
762.2406,0.040358
764.1043,0.040172
765.9679,0.040490
767.8316,0.040371
769.6953,0.039347
771.5589,0.038493
773.4226,0.038061
775.2863,0.037622
777.1499,0.037130
779.0136,0.036889
780.8773,0.036653
782.7409,0.036351
784.6046,0.035988
786.4683,0.035614
788.3320,0.035131
790.1956,0.034535
792.0593,0.034229
793.9230,0.034096
795.7866,0.033938
797.6503,0.033876
799.5140,0.033958
801.3776,0.034136
803.2413,0.034223
805.1050,0.034122
806.9686,0.034228
808.8323,0.034192
810.6960,0.033789
812.5596,0.033465
814.4233,0.033408
816.2870,0.033224
818.1507,0.032612
820.0143,0.031997
821.8780,0.031461
823.7417,0.030937
825.6053,0.030597
827.4690,0.029955
829.3327,0.029029
831.1963,0.028623
833.0600,0.028400
834.9237,0.027803
836.7873,0.027077
838.6510,0.026567
840.5147,0.026155
842.3784,0.025728
844.2420,0.025545
846.1057,0.025386
847.9694,0.025277
849.8330,0.025454
851.6967,0.025333
853.5604,0.025158
855.4240,0.025179
857.2877,0.025121
859.1514,0.025272
861.0150,0.025650
862.8787,0.025934
864.7424,0.026383
866.6060,0.027083
868.4697,0.027899
870.3334,0.028504
872.1971,0.028323
874.0607,0.027719
875.9244,0.027087
877.7881,0.026397
879.6517,0.025879
881.5154,0.025467
883.3791,0.025275
885.2427,0.025397
887.1064,0.025549
888.9701,0.025574
890.8337,0.025588
892.6974,0.025749
894.5611,0.025807
896.4247,0.025514
898.2884,0.025264
900.1521,0.025357
902.0158,0.025385
903.8794,0.025150
905.7431,0.025008
907.6068,0.025058
909.4704,0.025219
911.3341,0.025525
913.1978,0.025824
915.0614,0.026127
916.9251,0.026434
918.7888,0.026480
920.6524,0.026441
922.5161,0.026563
924.3798,0.026743
926.2435,0.026822
928.1071,0.026959
929.9708,0.027026
931.8345,0.026963
933.6981,0.027210
935.5618,0.027770
937.4255,0.028151
939.2891,0.028471
941.1528,0.029076
943.0165,0.029748
944.8801,0.030215
946.7438,0.030590
948.6075,0.030939
950.4711,0.031221
952.3348,0.031480
954.1985,0.031861
956.0622,0.032395
957.9258,0.033109
959.7895,0.034092
961.6532,0.035241
963.5168,0.036284
965.3805,0.037055
967.2442,0.037492
969.1078,0.037670
970.9715,0.037552
972.8352,0.037438
974.6988,0.037623
976.5625,0.038012
978.4262,0.038483
980.2899,0.039104
982.1535,0.039838
984.0172,0.040699
985.8809,0.041538
987.7445,0.042389
989.6082,0.043294
991.4719,0.044104
993.3355,0.044930
995.1992,0.045798
997.0629,0.046589
998.9265,0.047292
1000.7902,0.047900
1002.6539,0.048483
1004.5175,0.049204
1006.3812,0.050291
1008.2449,0.051572
1010.1086,0.052834
1011.9722,0.054095
1013.8359,0.055446
1015.6996,0.056645
1017.5632,0.057641
1019.4269,0.058440
1021.2906,0.058943
1023.1542,0.059230
1025.0179,0.059511
1026.8816,0.059794
1028.7452,0.059974
1030.6089,0.060144
1032.4726,0.060252
1034.3362,0.060159
1036.1999,0.059933
1038.0636,0.059598
1039.9273,0.059175
1041.7909,0.058739
1043.6546,0.058317
1045.5183,0.057896
1047.3819,0.057498
1049.2456,0.057190
1051.1093,0.057017
1052.9729,0.056875
1054.8366,0.056759
1056.7003,0.056645
1058.5639,0.056573
1060.4276,0.056444
1062.2913,0.056221
1064.1550,0.056062
1066.0186,0.055983
1067.8823,0.055913
1069.7460,0.055681
1071.6096,0.055338
1073.4733,0.054882
1075.3370,0.054142
1077.2006,0.053164
1079.0643,0.052072
1080.9280,0.050741
1082.7916,0.049180
1084.6553,0.047657
1086.5190,0.046267
1088.3826,0.044885
1090.2463,0.043659
1092.1100,0.042695
1093.9737,0.041814
1095.8373,0.041079
1097.7010,0.040468
1099.5647,0.039861
1101.4283,0.039353
1103.2920,0.039029
1105.1557,0.038819
1107.0193,0.038678
1108.8830,0.038555
1110.7467,0.038383
1112.6103,0.038206
1114.4740,0.038079
1116.3377,0.037825
1118.2014,0.037473
1120.0650,0.037150
1121.9287,0.036804
1123.7924,0.036383
1125.6560,0.035904
1127.5197,0.035476
1129.3834,0.035028
1131.2470,0.034488
1133.1107,0.033841
1134.9744,0.033187
1136.8380,0.032656
1138.7017,0.032208
1140.5654,0.031885
1142.4290,0.031737
1144.2927,0.031573
1146.1564,0.031470
1148.0201,0.031590
1149.8837,0.031777
1151.7474,0.031819
1153.6111,0.031835
1155.4747,0.031843
1157.3384,0.031785
1159.2021,0.031720
1161.0657,0.031549
1162.9294,0.031286
1164.7931,0.030912
1166.6567,0.030409
1168.5204,0.029814
1170.3841,0.028991
1172.2477,0.028011
1174.1114,0.027021
1175.9751,0.026063
1177.8388,0.025274
1179.7024,0.024653
1181.5661,0.024336
1183.4298,0.024310
1185.2934,0.024375
1187.1571,0.024566
1189.0208,0.024893
1190.8844,0.025386
1192.7481,0.025951
1194.6118,0.026477
1196.4754,0.026992
1198.3391,0.027669
1200.2028,0.028462
1202.0665,0.029122
1203.9301,0.029642
1205.7938,0.030068
1207.6575,0.030495
1209.5211,0.030873
1211.3848,0.031250
1213.2485,0.031646
1215.1121,0.032075
1216.9758,0.032577
1218.8395,0.033065
1220.7031,0.033471
1222.5668,0.033722
1224.4305,0.033946
1226.2941,0.034269
1228.1578,0.034472
1230.0215,0.034581
1231.8852,0.034643
1233.7488,0.034656
1235.6125,0.034580
1237.4762,0.034417
1239.3398,0.034247
1241.2035,0.034058
1243.0672,0.033835
1244.9308,0.033646
1246.7945,0.033270
1248.6582,0.032909
1250.5218,0.032733
1252.3855,0.032437
1254.2492,0.032078
1256.1129,0.031714
1257.9765,0.031322
1259.8402,0.031089
1261.7039,0.030936
1263.5675,0.030708
1265.4312,0.030448
1267.2949,0.030238
1269.1585,0.030072
1271.0222,0.029961
1272.8859,0.029817
1274.7495,0.029664
1276.6132,0.029639
1278.4769,0.029594
1280.3405,0.029501
1282.2042,0.029522
1284.0679,0.029510
1285.9316,0.029450
1287.7952,0.029567
1289.6589,0.029618
1291.5226,0.029703
1293.3862,0.029913
1295.2499,0.030075
1297.1136,0.030155
1298.9772,0.030277
1300.8409,0.030438
1302.7046,0.030575
1304.5682,0.030793
1306.4319,0.030997
1308.2956,0.031106
1310.1592,0.031028
1312.0229,0.031003
1313.8866,0.030944
1315.7503,0.030740
1317.6139,0.030666
1319.4776,0.030553
1321.3413,0.030277
1323.2049,0.029988
1325.0686,0.029785
1326.9323,0.029600
1328.7959,0.029510
1330.6596,0.029452
1332.5233,0.029330
1334.3869,0.029231
1336.2506,0.029304
1338.1143,0.029641
1339.9780,0.030052
1341.8416,0.030025
1343.7053,0.029860
1345.5690,0.029762
1347.4326,0.029652
1349.2963,0.029808
1351.1600,0.030025
1353.0236,0.030166
1354.8873,0.030406
1356.7510,0.030590
1358.6146,0.030631
1360.4783,0.030979
1362.3420,0.032167
1364.2056,0.033112
1366.0693,0.033402
1367.9330,0.033868
1369.7967,0.034254
1371.6603,0.034479
1373.5240,0.035296
1375.3877,0.036017
1377.2513,0.035906
1379.1150,0.035926
1380.9787,0.035999
1382.8423,0.035797
1384.7060,0.035606
1386.5697,0.035998
1388.4333,0.036204
1390.2970,0.035439
1392.1607,0.034836
1394.0244,0.035087
1395.8880,0.035440
1397.7517,0.035248
1399.6154,0.035239
1401.4790,0.034606
1403.3427,0.034050
1405.2064,0.034156
1407.0700,0.033820
1408.9337,0.033315
1410.7974,0.032999
1412.6610,0.032604
1414.5247,0.032010
1416.3884,0.031526
1418.2520,0.032211
1420.1157,0.033145
1421.9794,0.032494
1423.8431,0.032355
1425.7067,0.032417
1427.5704,0.032286
1429.4341,0.032846
1431.2977,0.033021
1433.1614,0.032465
1435.0251,0.032750
1436.8887,0.034837
1438.7524,0.035204
1440.6161,0.034442
1442.4797,0.034153
1444.3434,0.033922
1446.2071,0.033925
1448.0707,0.034309
1449.9344,0.033983
1451.7981,0.033060
1453.6618,0.032023
1455.5254,0.031946
1457.3891,0.034040
1459.2528,0.033106
1461.1164,0.031170
1462.9801,0.030475
1464.8438,0.031184
1466.7074,0.030777
1468.5711,0.029240
1470.4348,0.028366
1472.2984,0.029257
1474.1621,0.029637
1476.0258,0.029149
1477.8895,0.028756
1479.7531,0.028638
1481.6168,0.029140
1483.4805,0.029209
1485.3441,0.029286
1487.2078,0.030534
1489.0715,0.033051
1490.9351,0.035054
1492.7988,0.034705
1494.6625,0.034819
1496.5261,0.037255
1498.3898,0.039384
1500.2535,0.039904
1502.1171,0.039398
1503.9808,0.038999
1505.8445,0.041869
1507.7082,0.046935
1509.5718,0.046582
1511.4355,0.046106
1513.2992,0.046183
1515.1628,0.046274
1517.0265,0.046892
1518.8902,0.046582
1520.7538,0.047227
1522.6175,0.048546
1524.4812,0.047781
1526.3448,0.048060
1528.2085,0.048227
1530.0722,0.047669
1531.9359,0.047488
1533.7995,0.048322
1535.6632,0.047268
1537.5269,0.045578
1539.3905,0.046528
1541.2542,0.048112
1543.1179,0.047108
1544.9815,0.046116
1546.8452,0.044729
1548.7089,0.043476
1550.5725,0.042638
1552.4362,0.041058
1554.2999,0.039276
1556.1635,0.037486
1558.0272,0.037461
1559.8909,0.038968
1561.7546,0.036972
1563.6182,0.035098
1565.4819,0.033836
1567.3456,0.032727
1569.2092,0.032450
1571.0729,0.032097
1572.9366,0.030580
1574.8002,0.029818
1576.6639,0.030653
1578.5276,0.030137
1580.3912,0.029170
1582.2549,0.028829
1584.1186,0.028613
1585.9822,0.028770
1587.8459,0.028948
1589.7096,0.029168
1591.5733,0.029534
1593.4369,0.030273
1595.3006,0.031012
1597.1643,0.031588
1599.0279,0.032443
1600.8916,0.033679
1602.7553,0.034933
1604.6189,0.036091
1606.4826,0.037388
1608.3463,0.039092
1610.2099,0.040504
1612.0736,0.041565
1613.9373,0.042298
1615.8010,0.044438
1617.6646,0.047386
1619.5283,0.047633
1621.3920,0.047792
1623.2556,0.049790
1625.1193,0.051055
1626.9830,0.051444
1628.8466,0.052272
1630.7103,0.052307
1632.5740,0.051512
1634.4376,0.051561
1636.3013,0.052948
1638.1650,0.052505
1640.0286,0.051151
1641.8923,0.049768
1643.7560,0.048397
1645.6197,0.047958
1647.4833,0.047729
1649.3470,0.045696
1651.2107,0.043689
1653.0743,0.044150
1654.9380,0.043755
1656.8017,0.041698
1658.6653,0.039637
1660.5290,0.037718
1662.3927,0.036552
1664.2563,0.035391
1666.1200,0.033534
1667.9837,0.032098
1669.8474,0.031154
1671.7110,0.029624
1673.5747,0.027922
1675.4384,0.027086
1677.3020,0.025806
1679.1657,0.024110
1681.0294,0.022629
1682.8930,0.021447
1684.7567,0.020986
1686.6204,0.019611
1688.4840,0.017954
1690.3477,0.016246
1692.2114,0.014483
1694.0750,0.012875
1695.9387,0.011774
1697.8024,0.010520
1699.6661,0.009379
1701.5297,0.008507
1703.3934,0.007105
1705.2571,0.006158
1707.1207,0.005396
1708.9844,0.004538
1710.8481,0.003819
1712.7117,0.003274
1714.5754,0.002788
1716.4391,0.002440
1718.3027,0.002267
1720.1664,0.002055
1722.0301,0.001426
1723.8937,0.001004
1725.7574,0.000752
1727.6211,0.000448
1729.4848,0.000157
1731.3484,0.000016
1733.2121,-0.000001
1735.0758,0.000361
1736.9394,0.000020
1738.8031,-0.000412
1740.6668,-0.000500
1742.5304,-0.000525
1744.3941,-0.000612
1746.2578,-0.000617
1748.1214,-0.000633
1749.9851,-0.000835
1751.8488,-0.001160
1753.7125,-0.001533
1755.5761,-0.002228
1757.4398,-0.002707
1759.3035,-0.002790
1761.1671,-0.002827
1763.0308,-0.002895
1764.8945,-0.003167
1766.7581,-0.003586
1768.6218,-0.003556
1770.4855,-0.003443
1772.3491,-0.003426
1774.2128,-0.003374
1776.0765,-0.003508
1777.9401,-0.003520
1779.8038,-0.003690
1781.6675,-0.003889
1783.5312,-0.003829
1785.3948,-0.003570
1787.2585,-0.003512
1789.1222,-0.003579
1790.9858,-0.003571
1792.8495,-0.003725
1794.7132,-0.003963
1796.5768,-0.003913
1798.4405,-0.003791
1800.3042,-0.003822
1802.1678,-0.003823
1804.0315,-0.003809
1805.8952,-0.003924
1807.7589,-0.004131
1809.6225,-0.004300
1811.4862,-0.004405
1813.3499,-0.004633
1815.2135,-0.004766
1817.0772,-0.004584
1818.9409,-0.004293
1820.8045,-0.004177
1822.6682,-0.004318
1824.5319,-0.004308
1826.3955,-0.004133
1828.2592,-0.004267
1830.1229,-0.004481
1831.9865,-0.004445
1833.8502,-0.004565
1835.7139,-0.004500
1837.5776,-0.004345
1839.4412,-0.004368
1841.3049,-0.004276
1843.1686,-0.003955
1845.0322,-0.003908
1846.8959,-0.004106
1848.7596,-0.004192
1850.6232,-0.004237
1852.4869,-0.004217
1854.3506,-0.004419
1856.2142,-0.004552
1858.0779,-0.004592
1859.9416,-0.004499
1861.8052,-0.004409
1863.6689,-0.004512
1865.5326,-0.004204
1867.3963,-0.003936
1869.2599,-0.004079
1871.1236,-0.003901
1872.9873,-0.004039
1874.8509,-0.004133
1876.7146,-0.003889
1878.5783,-0.003782
1880.4419,-0.003934
1882.3056,-0.004231
1884.1693,-0.004172
1886.0329,-0.003897
1887.8966,-0.003777
1889.7603,-0.003772
1891.6240,-0.003710
1893.4876,-0.003636
1895.3513,-0.003662
1897.2150,-0.003846
1899.0786,-0.004032
1900.9423,-0.004074
1902.8060,-0.003425
1904.6696,-0.003397
1906.5333,-0.003928
1908.3970,-0.004022
1910.2606,-0.003927
1912.1243,-0.003730
1913.9880,-0.003760
1915.8516,-0.003649
1917.7153,-0.003437
1919.5790,-0.003358
1921.4427,-0.003626
1923.3063,-0.003729
1925.1700,-0.003598
1927.0337,-0.003788
1928.8973,-0.004103
1930.7610,-0.003808
1932.6247,-0.003316
1934.4883,-0.003888
1936.3520,-0.004313
1938.2157,-0.003561
1940.0793,-0.002598
1941.9430,-0.002615
1943.8067,-0.003137
1945.6704,-0.002486
1947.5340,-0.002019
1949.3977,-0.003118
1951.2614,-0.003377
1953.1250,-0.002773
1954.9887,-0.003028
1956.8524,-0.003289
1958.7160,-0.002402
1960.5797,-0.001529
1962.4434,-0.001617
1964.3070,-0.001938
1966.1707,-0.001994
1968.0344,-0.001486
1969.8980,-0.001487
1971.7617,-0.002159
1973.6254,-0.002128
1975.4891,-0.002058
1977.3527,-0.001630
1979.2164,0.000117
1981.0801,0.000223
1982.9437,-0.000265
1984.8074,-0.000033
1986.6711,0.000032
1988.5347,-0.000215
1990.3984,-0.000517
1992.2621,-0.000460
1994.1257,-0.001291
1995.9894,-0.002560
1997.8531,-0.001936
1999.7167,-0.001021
2001.5804,-0.001667
2003.4441,-0.001460
2005.3078,-0.000773
2007.1714,-0.000132
2009.0351,-0.000059
2010.8988,-0.000967
2012.7624,-0.001328
2014.6261,-0.001028
2016.4898,-0.000882
2018.3534,-0.000747
2020.2171,-0.000365
2022.0808,0.000683
2023.9444,0.000289
2025.8081,-0.000426
2027.6718,-0.000078
2029.5355,0.000351
2031.3991,0.000181
2033.2628,0.000255
2035.1265,0.001517
2036.9901,0.002054
2038.8538,0.001176
2040.7175,0.001339
2042.5811,0.001697
2044.4448,0.000771
2046.3085,0.000539
2048.1721,0.001843
2050.0358,0.003712
2051.8995,0.003614
2053.7631,0.001897
2055.6268,0.000906
2057.4905,0.001307
2059.3542,0.001868
2061.2178,0.001872
2063.0815,0.001801
2064.9452,0.001688
2066.8088,0.001437
2068.6725,0.000739
2070.5362,0.000670
2072.3998,0.000833
2074.2635,0.000799
2076.1272,0.000607
2077.9908,0.000387
2079.8545,0.000027
2081.7182,-0.000218
2083.5819,-0.000311
2085.4455,-0.000600
2087.3092,-0.000257
2089.1729,-0.000074
2091.0365,-0.000823
2092.9002,-0.001441
2094.7639,-0.001684
2096.6275,-0.001560
2098.4912,-0.000913
2100.3549,0.000167
2102.2185,0.000643
2104.0822,-0.000116
2105.9459,-0.001014
2107.8095,-0.001417
2109.6732,-0.001203
2111.5369,-0.000685
2113.4006,-0.000510
2115.2642,-0.000306
2117.1279,-0.000190
2118.9916,-0.000908
2120.8552,-0.001417
2122.7189,-0.001424
2124.5826,-0.001503
2126.4462,-0.001229
2128.3099,-0.000764
2130.1736,-0.000865
2132.0372,-0.001959
2133.9009,-0.002925
2135.7646,-0.002866
2137.6282,-0.002452
2139.4919,-0.002350
2141.3556,-0.001935
2143.2193,-0.001387
2145.0829,-0.001003
2146.9466,-0.000663
2148.8103,-0.000783
2150.6739,-0.001490
2152.5376,-0.002769
2154.4013,-0.001616
2156.2649,0.000935
2158.1286,0.002172
2159.9923,0.002603
2161.8559,0.001681
2163.7196,0.001446
2165.5833,0.002261
2167.4470,0.003225
2169.3106,0.002973
2171.1743,0.001325
2173.0380,0.000890
2174.9016,0.001203
2176.7653,0.001705
2178.6290,0.001568
2180.4926,0.000569
2182.3563,0.000663
2184.2200,0.001777
2186.0836,0.002151
2187.9473,0.001810
2189.8110,0.001251
2191.6746,0.000782
2193.5383,0.000962
2195.4020,0.000631
2197.2657,0.000135
2199.1293,0.000668
2200.9930,0.001256
2202.8567,0.001452
2204.7203,0.001366
2206.5840,0.000702
2208.4477,0.000604
2210.3113,0.001344
2212.1750,0.001316
2214.0387,0.000400
2215.9023,0.000203
2217.7660,0.000324
2219.6297,-0.000033
2221.4934,0.000195
2223.3570,0.000140
2225.2207,0.000067
2227.0844,0.000969
2228.9480,0.000774
2230.8117,-0.000509
2232.6754,-0.000507
2234.5390,-0.000013
2236.4027,-0.000053
2238.2664,0.000099
2240.1300,0.000122
2241.9937,-0.000033
2243.8574,0.000034
2245.7210,-0.000152
2247.5847,-0.000118
2249.4484,0.000165
2251.3121,0.000188
2253.1757,0.000185
2255.0394,0.000192
2256.9031,-0.000148
2258.7667,-0.000456
2260.6304,-0.000256
2262.4941,-0.000283
2264.3577,-0.000203
2266.2214,0.000014
2268.0851,-0.000163
2269.9487,-0.000350
2271.8124,-0.000150
2273.6761,0.000080
2275.5397,0.000302
2277.4034,0.000327
2279.2671,-0.000115
2281.1308,-0.000192
2282.9944,0.000199
2284.8581,0.000324
2286.7218,0.000193
2288.5854,0.000396
2290.4491,0.000523
2292.3128,-0.000107
2294.1764,-0.000710
2296.0401,-0.000763
2297.9038,-0.000754
2299.7674,-0.000710
2301.6311,-0.000474
2303.4948,-0.000524
2305.3585,-0.000866
2307.2221,-0.000960
2309.0858,-0.000965
2310.9495,-0.000855
2312.8131,-0.000829
2314.6768,-0.000983
2316.5405,-0.000665
2318.4041,-0.000272
2320.2678,-0.000254
2322.1315,-0.000096
2323.9951,-0.000345
2325.8588,-0.001093
2327.7225,-0.001249
2329.5861,-0.000902
2331.4498,-0.001026
2333.3135,-0.001511
2335.1772,-0.001567
2337.0408,-0.001408
2338.9045,-0.001566
2340.7682,-0.001673
2342.6318,-0.001401
2344.4955,-0.000951
2346.3592,-0.001115
2348.2228,-0.001902
2350.0865,-0.002373
2351.9502,-0.002171
2353.8138,-0.001968
2355.6775,-0.002126
2357.5412,-0.001741
2359.4049,-0.000979
2361.2685,-0.000754
2363.1322,-0.001405
2364.9959,-0.001785
2366.8595,-0.001232
2368.7232,-0.001008
2370.5869,-0.001142
2372.4505,-0.001101
2374.3142,-0.000898
2376.1779,-0.001013
2378.0415,-0.001185
2379.9052,-0.001188
2381.7689,-0.001332
2383.6325,-0.001370
2385.4962,-0.001417
2387.3599,-0.001486
2389.2236,-0.001543
2391.0872,-0.001579
2392.9509,-0.001426
2394.8146,-0.001413
2396.6782,-0.001748
2398.5419,-0.001730
2400.4056,-0.001384
2402.2692,-0.001245
2404.1329,-0.001382
2405.9966,-0.001344
2407.8602,-0.000927
2409.7239,-0.000727
2411.5876,-0.000746
2413.4512,-0.000942
2415.3149,-0.001067
2417.1786,-0.000521
2419.0423,-0.000256
2420.9059,-0.000627
2422.7696,-0.000871
2424.6333,-0.000944
2426.4969,-0.000817
2428.3606,-0.000830
2430.2243,-0.000916
2432.0879,-0.000643
2433.9516,-0.000215
2435.8153,-0.000384
2437.6789,-0.000710
2439.5426,-0.000505
2441.4063,-0.000240
2443.2700,-0.000161
2445.1336,-0.000040
2446.9973,0.000119
2448.8610,0.000083
2450.7246,-0.000057
2452.5883,-0.000007
2454.4520,-0.000001
2456.3156,-0.000130
2458.1793,-0.000076
2460.0430,-0.000005
2461.9066,-0.000041
2463.7703,0.000081
2465.6340,0.000200
2467.4976,0.000122
2469.3613,-0.000082
2471.2250,-0.000324
2473.0887,-0.000230
2474.9523,0.000228
2476.8160,0.000420
2478.6797,0.000488
2480.5433,0.000547
2482.4070,0.000646
2484.2707,0.000571
2486.1343,0.000128
2487.9980,0.000001
2489.8617,0.000173
2491.7253,0.000492
2493.5890,0.000626
2495.4527,0.000561
2497.3164,0.000659
2499.1800,0.000723
2501.0437,0.000847
2502.9074,0.000908
2504.7710,0.000905
2506.6347,0.000856
2508.4984,0.000862
2510.3620,0.000917
2512.2257,0.000957
2514.0894,0.000856
2515.9530,0.000915
2517.8167,0.001046
2519.6804,0.000965
2521.5440,0.000948
2523.4077,0.000979
2525.2714,0.001121
2527.1351,0.001164
2528.9987,0.000967
2530.8624,0.000824
2532.7261,0.001217
2534.5897,0.001430
2536.4534,0.001320
2538.3171,0.001157
2540.1807,0.001305
2542.0444,0.001552
2543.9081,0.001187
2545.7717,0.001070
2547.6354,0.001480
2549.4991,0.001530
2551.3627,0.001321
2553.2264,0.001553
2555.0901,0.001702
2556.9538,0.001671
2558.8174,0.001512
2560.6811,0.001384
2562.5448,0.001633
2564.4084,0.001778
2566.2721,0.001795
2568.1358,0.001834
2569.9994,0.001780
2571.8631,0.001824
2573.7268,0.002211
2575.5904,0.001984
2577.4541,0.001655
2579.3178,0.002114
2581.1815,0.002453
2583.0451,0.002556
2584.9088,0.002378
2586.7725,0.001979
2588.6361,0.002099
2590.4998,0.002451
2592.3635,0.002344
2594.2271,0.001884
2596.0908,0.001941
2597.9545,0.002338
2599.8181,0.002489
2601.6818,0.002535
2603.5455,0.002547
2605.4091,0.002622
2607.2728,0.002669
2609.1365,0.002634
2611.0002,0.002731
2612.8638,0.002726
2614.7275,0.002846
2616.5912,0.003005
2618.4548,0.002895
2620.3185,0.002967
2622.1822,0.003064
2624.0458,0.003127
2625.9095,0.003213
2627.7732,0.003374
2629.6368,0.003453
2631.5005,0.003341
2633.3642,0.003299
2635.2279,0.003401
2637.0915,0.003409
2638.9552,0.003353
2640.8189,0.003431
2642.6825,0.003451
2644.5462,0.003472
2646.4099,0.003484
2648.2735,0.003467
2650.1372,0.003524
2652.0009,0.003608
2653.8645,0.003624
2655.7282,0.003707
2657.5919,0.003586
2659.4555,0.003336
2661.3192,0.003288
2663.1829,0.003385
2665.0466,0.003416
2666.9102,0.003209
2668.7739,0.003046
2670.6376,0.003048
2672.5012,0.003112
2674.3649,0.003277
2676.2286,0.003343
2678.0922,0.003363
2679.9559,0.003333
2681.8196,0.003386
2683.6832,0.003528
2685.5469,0.003496
2687.4106,0.003513
2689.2742,0.003724
2691.1379,0.003822
2693.0016,0.003812
2694.8653,0.003765
2696.7289,0.003736
2698.5926,0.003846
2700.4563,0.003979
2702.3199,0.004056
2704.1836,0.003991
2706.0473,0.004099
2707.9109,0.004297
2709.7746,0.004298
2711.6383,0.004309
2713.5019,0.004538
2715.3656,0.004477
2717.2293,0.004308
2719.0930,0.004572
2720.9566,0.004810
2722.8203,0.004682
2724.6840,0.004407
2726.5476,0.004478
2728.4113,0.004801
2730.2750,0.004970
2732.1386,0.005014
2734.0023,0.004906
2735.8660,0.004931
2737.7296,0.005168
2739.5933,0.005241
2741.4570,0.005258
2743.3206,0.005302
2745.1843,0.005402
2747.0480,0.005598
2748.9117,0.005494
2750.7753,0.005483
2752.6390,0.005691
2754.5027,0.005882
2756.3663,0.005910
2758.2300,0.005901
2760.0937,0.006054
2761.9573,0.006109
2763.8210,0.006183
2765.6847,0.006191
2767.5483,0.006152
2769.4120,0.006170
2771.2757,0.006389
2773.1394,0.006612
2775.0030,0.006735
2776.8667,0.006783
2778.7304,0.006792
2780.5940,0.006777
2782.4577,0.006744
2784.3214,0.006899
2786.1850,0.007182
2788.0487,0.007151
2789.9124,0.007157
2791.7760,0.007247
2793.6397,0.007440
2795.5034,0.007519
2797.3670,0.007558
2799.2307,0.007746
2801.0944,0.007844
2802.9581,0.007790
2804.8217,0.007690
2806.6854,0.007875
2808.5491,0.008142
2810.4127,0.008191
2812.2764,0.008352
2814.1401,0.008332
2816.0037,0.008202
2817.8674,0.008415
2819.7311,0.008653
2821.5947,0.008799
2823.4584,0.008803
2825.3221,0.009039
2827.1857,0.009301
2829.0494,0.009481
2830.9131,0.009588
2832.7768,0.009752
2834.6404,0.009838
2836.5041,0.009845
2838.3678,0.009955
2840.2314,0.010228
2842.0951,0.010353
2843.9588,0.010664
2845.8224,0.011064
2847.6861,0.011392
2849.5498,0.011653
2851.4134,0.011762
2853.2771,0.012043
2855.1408,0.012275
2857.0045,0.012220
2858.8681,0.012188
2860.7318,0.012189
2862.5955,0.012350
2864.4591,0.012489
2866.3228,0.012650
2868.1865,0.012762
2870.0501,0.012917
2871.9138,0.013172
2873.7775,0.013325
2875.6411,0.013011
2877.5048,0.012915
2879.3685,0.012976
2881.2321,0.013001
2883.0958,0.012919
2884.9595,0.012953
2886.8232,0.013069
2888.6868,0.013155
2890.5505,0.013315
2892.4142,0.013469
2894.2778,0.013545
2896.1415,0.013631
2898.0052,0.013683
2899.8688,0.013720
2901.7325,0.014008
2903.5962,0.014315
2905.4598,0.014240
2907.3235,0.014212
2909.1872,0.014251
2911.0509,0.014468
2912.9145,0.014655
2914.7782,0.014783
2916.6419,0.015027
2918.5055,0.015164
2920.3692,0.015441
2922.2329,0.015768
2924.0965,0.016025
2925.9602,0.016129
2927.8239,0.015938
2929.6875,0.015724
2931.5512,0.015755
2933.4149,0.015722
2935.2785,0.015485
2937.1422,0.015340
2939.0059,0.015179
2940.8696,0.015065
2942.7332,0.014856
2944.5969,0.014678
2946.4606,0.014631
2948.3242,0.014602
2950.1879,0.014496
2952.0516,0.014552
2953.9152,0.014621
2955.7789,0.014754
2957.6426,0.014788
2959.5062,0.014646
2961.3699,0.014758
2963.2336,0.014930
2965.0972,0.014576
2966.9609,0.014226
2968.8246,0.014002
2970.6883,0.013800
2972.5519,0.013527
2974.4156,0.013100
2976.2793,0.012956
2978.1429,0.012925
2980.0066,0.012827
2981.8703,0.012674
2983.7339,0.012346
2985.5976,0.011990
2987.4613,0.011734
2989.3249,0.011768
2991.1886,0.011634
2993.0523,0.011559
2994.9160,0.011864
2996.7796,0.011842
2998.6433,0.011496
3000.5070,0.011532
3002.3706,0.011703
3004.2343,0.011683
3006.0980,0.011635
3007.9616,0.011733
3009.8253,0.011974
3011.6890,0.012268
3013.5526,0.012504
3015.4163,0.012448
3017.2800,0.012330
3019.1436,0.012421
3021.0073,0.012566
3022.8710,0.012628
3024.7347,0.012646
3026.5983,0.012898
3028.4620,0.013049
3030.3257,0.013246
3032.1893,0.013454
3034.0530,0.013275
3035.9167,0.013231
3037.7803,0.013466
3039.6440,0.013853
3041.5077,0.014134
3043.3713,0.014250
3045.2350,0.014280
3047.0987,0.014277
3048.9624,0.014262
3050.8260,0.014438
3052.6897,0.014385
3054.5534,0.014410
3056.4170,0.014498
3058.2807,0.014726
3060.1444,0.015065
3062.0080,0.015260
3063.8717,0.015430
3065.7354,0.015392
3067.5990,0.015157
3069.4627,0.015134
3071.3264,0.015262
3073.1900,0.015411
3075.0537,0.015562
3076.9174,0.015520
3078.7811,0.015502
3080.6447,0.015613
3082.5084,0.015768
3084.3721,0.015700
3086.2357,0.015312
3088.0994,0.015134
3089.9631,0.015377
3091.8267,0.015618
3093.6904,0.015496
3095.5541,0.015534
3097.4177,0.015632
3099.2814,0.015341
3101.1451,0.015158
3103.0087,0.015364
3104.8724,0.015569
3106.7361,0.015648
3108.5998,0.015883
3110.4634,0.015556
3112.3271,0.015457
3114.1908,0.015962
3116.0544,0.015880
3117.9181,0.015492
3119.7818,0.015448
3121.6454,0.015763
3123.5091,0.016300
3125.3728,0.016382
3127.2364,0.016317
3129.1001,0.016471
3130.9638,0.016802
3132.8275,0.016578
3134.6911,0.016212
3136.5548,0.016343
3138.4185,0.016619
3140.2821,0.016786
3142.1458,0.017018
3144.0095,0.017349
3145.8731,0.017475
3147.7368,0.017622
3149.6005,0.017772
3151.4641,0.018131
3153.3278,0.018529
3155.1915,0.018363
3157.0551,0.018336
3158.9188,0.018578
3160.7825,0.018881
3162.6462,0.019026
3164.5098,0.018984
3166.3735,0.019179
3168.2372,0.019672
3170.1008,0.019695
3171.9645,0.019674
3173.8282,0.019908
3175.6918,0.020125
3177.5555,0.020234
3179.4192,0.020159
3181.2828,0.020151
3183.1465,0.020456
3185.0102,0.020739
3186.8739,0.020748
3188.7375,0.020500
3190.6012,0.020520
3192.4649,0.021109
3194.3285,0.021642
3196.1922,0.021652
3198.0559,0.021966
3199.9195,0.021969
3201.7832,0.021505
3203.6469,0.021610
3205.5105,0.021866
3207.3742,0.021913
3209.2379,0.021984
3211.1015,0.022095
3212.9652,0.022155
3214.8289,0.022240
3216.6926,0.022468
3218.5562,0.022826
3220.4199,0.022716
3222.2836,0.022537
3224.1472,0.022642
3226.0109,0.022653
3227.8746,0.022822
3229.7382,0.023044
3231.6019,0.023396
3233.4656,0.023227
3235.3292,0.022985
3237.1929,0.022751
3239.0566,0.023398
3240.9202,0.024334
3242.7839,0.024756
3244.6476,0.024061
3246.5113,0.023538
3248.3749,0.023947
3250.2386,0.024162
3252.1023,0.024052
3253.9659,0.024245
3255.8296,0.024490
3257.6933,0.024345
3259.5569,0.024336
3261.4206,0.024644
3263.2843,0.024872
3265.1479,0.025429
3267.0116,0.025394
3268.8753,0.025042
3270.7390,0.025219
3272.6026,0.025246
3274.4663,0.025072
3276.3300,0.025148
3278.1936,0.025294
3280.0573,0.025115
3281.9210,0.024570
3283.7846,0.024765
3285.6483,0.024713
3287.5120,0.024651
3289.3756,0.024885
3291.2393,0.025060
3293.1030,0.024632
3294.9666,0.024160
3296.8303,0.024281
3298.6940,0.024116
3300.5577,0.023846
3302.4213,0.023760
3304.2850,0.023512
3306.1487,0.023138
3308.0123,0.023119
3309.8760,0.023034
3311.7397,0.022750
3313.6033,0.022481
3315.4670,0.022107
3317.3307,0.022265
3319.1943,0.022547
3321.0580,0.022184
3322.9217,0.021526
3324.7854,0.021260
3326.6490,0.021175
3328.5127,0.021373
3330.3764,0.021385
3332.2400,0.020758
3334.1037,0.020569
3335.9674,0.020946
3337.8310,0.021149
3339.6947,0.020807
3341.5584,0.020078
3343.4220,0.019927
3345.2857,0.019965
3347.1494,0.020344
3349.0130,0.020165
3350.8767,0.019531
3352.7404,0.019517
3354.6041,0.019634
3356.4677,0.019707
3358.3314,0.019912
3360.1951,0.019606
3362.0587,0.018989
3363.9224,0.018735
3365.7861,0.018801
3367.6497,0.019007
3369.5134,0.018929
3371.3771,0.018568
3373.2407,0.018634
3375.1044,0.018696
3376.9681,0.018826
3378.8317,0.018465
3380.6954,0.018226
3382.5591,0.017911
3384.4228,0.017432
3386.2864,0.017710
3388.1501,0.018260
3390.0138,0.017491
3391.8774,0.016532
3393.7411,0.016974
3395.6048,0.017591
3397.4684,0.017331
3399.3321,0.017198
3401.1958,0.016808
3403.0594,0.016689
3404.9231,0.017329
3406.7868,0.017329
3408.6505,0.016754
3410.5141,0.016304
3412.3778,0.015905
3414.2415,0.015874
3416.1051,0.015992
3417.9688,0.015936
3419.8325,0.015567
3421.6961,0.015392
3423.5598,0.015797
3425.4235,0.015904
3427.2871,0.015782
3429.1508,0.015196
3431.0145,0.014615
3432.8781,0.015018
3434.7418,0.015568
3436.6055,0.015106
3438.4692,0.014568
3440.3328,0.014384
3442.1965,0.013769
3444.0602,0.013399
3445.9238,0.013703
3447.7875,0.013586
3449.6512,0.013378
3451.5148,0.013418
3453.3785,0.013857
3455.2422,0.014000
3457.1058,0.013601
3458.9695,0.013038
3460.8332,0.012807
3462.6969,0.013100
3464.5605,0.012805
3466.4242,0.012280
3468.2879,0.011893
3470.1515,0.012142
3472.0152,0.012478
3473.8789,0.012336
3475.7425,0.012356
3477.6062,0.011957
3479.4699,0.011249
3481.3335,0.010946
3483.1972,0.010742
3485.0609,0.011128
3486.9245,0.011436
3488.7882,0.011039
3490.6519,0.010300
3492.5156,0.010178
3494.3792,0.010193
3496.2429,0.009872
3498.1066,0.009853
3499.9702,0.010134
3501.8339,0.010120
3503.6976,0.009254
3505.5612,0.009102
3507.4249,0.009797
3509.2886,0.009090
3511.1522,0.008239
3513.0159,0.008354
3514.8796,0.008104
3516.7432,0.008052
3518.6069,0.008366
3520.4706,0.008083
3522.3343,0.007771
3524.1979,0.007639
3526.0616,0.007186
3527.9253,0.006858
3529.7889,0.007179
3531.6526,0.007424
3533.5163,0.007415
3535.3799,0.006670
3537.2436,0.006300
3539.1073,0.006208
3540.9709,0.006088
3542.8346,0.006142
3544.6983,0.005823
3546.5620,0.005300
3548.4256,0.005061
3550.2893,0.005413
3552.1530,0.005647
3554.0166,0.005399
3555.8803,0.004957
3557.7440,0.004557
3559.6076,0.003634
3561.4713,0.003184
3563.3350,0.003679
3565.1986,0.004100
3567.0623,0.003923
3568.9260,0.003636
3570.7896,0.003258
3572.6533,0.002426
3574.5170,0.001880
3576.3807,0.001874
3578.2443,0.002010
3580.1080,0.002028
3581.9717,0.002097
3583.8353,0.001929
3585.6990,0.001210
3587.5627,0.001059
3589.4263,0.000958
3591.2900,0.000537
3593.1537,0.000831
3595.0173,0.000770
3596.8810,0.000033
3598.7447,-0.000331
3600.6084,-0.000174
3602.4720,-0.000095
3604.3357,-0.000221
3606.1994,-0.000145
3608.0630,-0.000407
3609.9267,-0.000974
3611.7904,-0.001257
3613.6540,-0.001709
3615.5177,-0.002088
3617.3814,-0.002150
3619.2450,-0.002549
3621.1087,-0.002690
3622.9724,-0.002432
3624.8360,-0.002874
3626.6997,-0.003473
3628.5634,-0.003518
3630.4271,-0.002855
3632.2907,-0.002984
3634.1544,-0.003708
3636.0181,-0.003812
3637.8817,-0.003764
3639.7454,-0.003755
3641.6091,-0.003594
3643.4727,-0.004084
3645.3364,-0.005029
3647.2001,-0.005380
3649.0637,-0.005457
3650.9274,-0.005211
3652.7911,-0.004981
3654.6547,-0.005884
3656.5184,-0.006644
3658.3821,-0.006100
3660.2458,-0.005669
3662.1094,-0.005848
3663.9731,-0.006375
3665.8368,-0.006429
3667.7004,-0.006190
3669.5641,-0.007066
3671.4278,-0.007684
3673.2914,-0.007336
3675.1551,-0.007566
3677.0188,-0.007553
3678.8824,-0.007095
3680.7461,-0.006958
3682.6098,-0.007217
3684.4735,-0.007436
3686.3371,-0.007587
3688.2008,-0.007963
3690.0645,-0.008169
3691.9281,-0.007707
3693.7918,-0.007567
3695.6555,-0.007979
3697.5191,-0.008014
3699.3828,-0.007937
3701.2465,-0.008136
3703.1101,-0.007877
3704.9738,-0.007351
3706.8375,-0.007771
3708.7011,-0.008686
3710.5648,-0.008302
3712.4285,-0.007743
3714.2922,-0.008123
3716.1558,-0.008195
3718.0195,-0.008226
3719.8832,-0.008532
3721.7468,-0.008464
3723.6105,-0.008068
3725.4742,-0.008104
3727.3378,-0.007997
3729.2015,-0.007464
3731.0652,-0.007658
3732.9288,-0.008494
3734.7925,-0.008879
3736.6562,-0.008784
3738.5199,-0.008298
3740.3835,-0.007829
3742.2472,-0.008211
3744.1109,-0.009196
3745.9745,-0.009270
3747.8382,-0.008705
3749.7019,-0.008718
3751.5655,-0.008765
3753.4292,-0.008523
3755.2929,-0.008526
3757.1565,-0.008772
3759.0202,-0.008543
3760.8839,-0.008221
3762.7475,-0.008040
3764.6112,-0.008141
3766.4749,-0.008503
3768.3386,-0.008444
3770.2022,-0.008439
3772.0659,-0.008410
3773.9296,-0.008069
3775.7932,-0.007957
3777.6569,-0.008210
3779.5206,-0.008501
3781.3842,-0.008279
3783.2479,-0.007914
3785.1116,-0.007957
3786.9752,-0.008386
3788.8389,-0.008740
3790.7026,-0.008660
3792.5662,-0.008562
3794.4299,-0.008341
3796.2936,-0.008186
3798.1573,-0.008311
3800.0209,-0.008546
3801.8846,-0.008534
3803.7483,-0.008055
3805.6119,-0.008235
3807.4756,-0.008793
3809.3393,-0.008592
3811.2029,-0.008115
3813.0666,-0.008086
3814.9303,-0.008481
3816.7939,-0.008974
3818.6576,-0.009087
3820.5213,-0.009123
3822.3850,-0.008669
3824.2486,-0.007940
3826.1123,-0.007937
3827.9760,-0.008064
3829.8396,-0.008181
3831.7033,-0.008625
3833.5670,-0.008946
3835.4306,-0.008901
3837.2943,-0.008799
3839.1580,-0.008570
3841.0216,-0.008234
3842.8853,-0.008190
3844.7490,-0.008295
3846.6126,-0.008219
3848.4763,-0.008336
3850.3400,-0.008820
3852.2037,-0.009192
3854.0673,-0.009051
3855.9310,-0.008423
3857.7947,-0.008403
3859.6583,-0.008875
3861.5220,-0.009051
3863.3857,-0.008965
3865.2493,-0.008561
3867.1130,-0.007731
3868.9767,-0.007438
3870.8403,-0.007947
3872.7040,-0.008373
3874.5677,-0.008499
3876.4314,-0.008367
3878.2950,-0.008420
3880.1587,-0.008783
3882.0224,-0.008723
3883.8860,-0.008517
3885.7497,-0.008614
3887.6134,-0.008443
3889.4770,-0.008078
3891.3407,-0.008000
3893.2044,-0.008187
3895.0680,-0.008309
3896.9317,-0.008316
3898.7954,-0.008301
3900.6590,-0.008602
3902.5227,-0.008674
3904.3864,-0.008364
3906.2501,-0.008126
3908.1137,-0.008141
3909.9774,-0.008329
3911.8411,-0.008529
3913.7047,-0.008389
3915.5684,-0.008211
3917.4321,-0.008361
3919.2957,-0.008162
3921.1594,-0.007767
3923.0231,-0.007929
3924.8867,-0.008215
3926.7504,-0.007991
3928.6141,-0.007788
3930.4777,-0.007986
3932.3414,-0.008101
3934.2051,-0.007962
3936.0688,-0.007834
3937.9324,-0.007801
3939.7961,-0.007981
3941.6598,-0.008584
3943.5234,-0.008706
3945.3871,-0.008114
3947.2508,-0.007913
3949.1144,-0.008256
3950.9781,-0.008230
3952.8418,-0.007920
3954.7054,-0.007756
3956.5691,-0.007901
3958.4328,-0.008038
3960.2965,-0.007831
3962.1601,-0.007797
3964.0238,-0.007897
3965.8875,-0.007826
3967.7511,-0.007816
3969.6148,-0.007874
3971.4785,-0.008259
3973.3421,-0.008471
3975.2058,-0.008117
3977.0695,-0.007734
3978.9331,-0.007963
3980.7968,-0.008477
3982.6605,-0.008266
3984.5241,-0.007902
3986.3878,-0.007801
3988.2515,-0.007675
3990.1152,-0.007804
3991.9788,-0.007858
3993.8425,-0.007857
3995.7062,-0.007806
3997.5698,-0.007931
3999.4335,-0.007942
