Wavenumber,Intensity
650.4205,0.030868
652.2841,0.030313
654.1478,0.030804
656.0115,0.030844
657.8751,0.031698
659.7388,0.032664
661.6025,0.033028
663.4661,0.032031
665.3298,0.030973
667.1935,0.029561
669.0571,0.029842
670.9208,0.030202
672.7845,0.029519
674.6481,0.030012
676.5118,0.030591
678.3755,0.031338
680.2392,0.029894
682.1028,0.029165
683.9665,0.029578
685.8302,0.029139
687.6938,0.029050
689.5575,0.027346
691.4212,0.027228
693.2848,0.028916
695.1485,0.029342
697.0122,0.028633
698.8758,0.027472
700.7395,0.027819
702.6032,0.027752
704.4669,0.026812
706.3305,0.026027
708.1942,0.025759
710.0579,0.025126
711.9215,0.024257
713.7852,0.023668
715.6489,0.023151
717.5125,0.022988
719.3762,0.022732
721.2399,0.023086
723.1035,0.023557
724.9672,0.023356
726.8309,0.022696
728.6945,0.022186
730.5582,0.021601
732.4219,0.021202
734.2856,0.021632
736.1492,0.021813
738.0129,0.021619
739.8766,0.021357
741.7402,0.022059
743.6039,0.022336
745.4676,0.021517
747.3312,0.021342
749.1949,0.021555
751.0586,0.021400
752.9222,0.020777
754.7859,0.020328
756.6496,0.020217
758.5132,0.020757
760.3769,0.021006
762.2406,0.021108
764.1043,0.021330
765.9679,0.021465
767.8316,0.021510
769.6953,0.021361
771.5589,0.020812
773.4226,0.020799
775.2863,0.021072
777.1499,0.020647
779.0136,0.020448
780.8773,0.020945
782.7409,0.021089
784.6046,0.020618
786.4683,0.019982
788.3320,0.019943
790.1956,0.019909
792.0593,0.019508
793.9230,0.019543
795.7866,0.019792
797.6503,0.019856
799.5140,0.019947
801.3776,0.020114
803.2413,0.020310
805.1050,0.020773
806.9686,0.021247
808.8323,0.021088
810.6960,0.021114
812.5596,0.021368
814.4233,0.021665
816.2870,0.021504
818.1507,0.021303
820.0143,0.021069
821.8780,0.020903
823.7417,0.020769
825.6053,0.020387
827.4690,0.020033
829.3327,0.020162
831.1963,0.020244
833.0600,0.020182
834.9237,0.020020
836.7873,0.019607
838.6510,0.019728
840.5147,0.019875
842.3784,0.019802
844.2420,0.019976
846.1057,0.020285
847.9694,0.020488
849.8330,0.020667
851.6967,0.020684
853.5604,0.020715
855.4240,0.021133
857.2877,0.021678
859.1514,0.022323
861.0150,0.022832
862.8787,0.023029
864.7424,0.023527
866.6060,0.024316
868.4697,0.025000
870.3334,0.025570
872.1971,0.026110
874.0607,0.026316
875.9244,0.026423
877.7881,0.026470
879.6517,0.026403
881.5154,0.026623
883.3791,0.026832
885.2427,0.026897
887.1064,0.027008
888.9701,0.027184
890.8337,0.027466
892.6974,0.027701
894.5611,0.027881
896.4247,0.028160
898.2884,0.028316
900.1521,0.028369
902.0158,0.028358
903.8794,0.028668
905.7431,0.028984
907.6068,0.029211
909.4704,0.029724
911.3341,0.030346
913.1978,0.030883
915.0614,0.031286
916.9251,0.031698
918.7888,0.032171
920.6524,0.032554
922.5161,0.032884
924.3798,0.033159
926.2435,0.033583
928.1071,0.033851
929.9708,0.033956
931.8345,0.034272
933.6981,0.034679
935.5618,0.034889
937.4255,0.035022
939.2891,0.035395
941.1528,0.036017
943.0165,0.036629
944.8801,0.037131
946.7438,0.037591
948.6075,0.037967
950.4711,0.038078
952.3348,0.038205
954.1985,0.038553
956.0622,0.039234
957.9258,0.039988
959.7895,0.040770
961.6532,0.041913
963.5168,0.043245
965.3805,0.044351
967.2442,0.045054
969.1078,0.045541
970.9715,0.045692
972.8352,0.045648
974.6988,0.045832
976.5625,0.046358
978.4262,0.047089
980.2899,0.047724
982.1535,0.048342
984.0172,0.049087
985.8809,0.049948
987.7445,0.050730
989.6082,0.051537
991.4719,0.052327
993.3355,0.053215
995.1992,0.054248
997.0629,0.055372
998.9265,0.056416
1000.7902,0.057328
1002.6539,0.058238
1004.5175,0.059353
1006.3812,0.060717
1008.2449,0.062387
1010.1086,0.064246
1011.9722,0.066255
1013.8359,0.068287
1015.6996,0.070337
1017.5632,0.072142
1019.4269,0.073511
1021.2906,0.074522
1023.1542,0.075340
1025.0179,0.076017
1026.8816,0.076737
1028.7452,0.077493
1030.6089,0.078179
1032.4726,0.078788
1034.3362,0.079120
1036.1999,0.079190
1038.0636,0.079091
1039.9273,0.078844
1041.7909,0.078494
1043.6546,0.078254
1045.5183,0.078027
1047.3819,0.077913
1049.2456,0.078065
1051.1093,0.078265
1052.9729,0.078507
1054.8366,0.078857
1056.7003,0.079166
1058.5639,0.079333
1060.4276,0.079507
1062.2913,0.079621
1064.1550,0.079887
1066.0186,0.080204
1067.8823,0.080412
1069.7460,0.080450
1071.6096,0.080336
1073.4733,0.079994
1075.3370,0.079362
1077.2006,0.078336
1079.0643,0.076967
1080.9280,0.075167
1082.7916,0.073161
1084.6553,0.071146
1086.5190,0.069218
1088.3826,0.067450
1090.2463,0.065777
1092.1100,0.064350
1093.9737,0.063146
1095.8373,0.062115
1097.7010,0.061283
1099.5647,0.060526
1101.4283,0.059803
1103.2920,0.059340
1105.1557,0.059009
1107.0193,0.058652
1108.8830,0.058291
1110.7467,0.058073
1112.6103,0.057939
1114.4740,0.057638
1116.3377,0.057305
1118.2014,0.056824
1120.0650,0.056170
1121.9287,0.055476
1123.7924,0.054671
1125.6560,0.053880
1127.5197,0.053132
1129.3834,0.052324
1131.2470,0.051429
1133.1107,0.050501
1134.9744,0.049531
1136.8380,0.048673
1138.7017,0.048016
1140.5654,0.047467
1142.4290,0.047028
1144.2927,0.046777
1146.1564,0.046666
1148.0201,0.046653
1149.8837,0.046671
1151.7474,0.046626
1153.6111,0.046501
1155.4747,0.046346
1157.3384,0.046098
1159.2021,0.045725
1161.0657,0.045265
1162.9294,0.044639
1164.7931,0.043881
1166.6567,0.043060
1168.5204,0.041973
1170.3841,0.040583
1172.2477,0.039212
1174.1114,0.037780
1175.9751,0.036315
1177.8388,0.035061
1179.7024,0.034156
1181.5661,0.033558
1183.4298,0.033252
1185.2934,0.033159
1187.1571,0.033207
1189.0208,0.033405
1190.8844,0.033684
1192.7481,0.034056
1194.6118,0.034578
1196.4754,0.035237
1198.3391,0.035898
1200.2028,0.036617
1202.0665,0.037306
1203.9301,0.038016
1205.7938,0.038621
1207.6575,0.039082
1209.5211,0.039626
1211.3848,0.040194
1213.2485,0.040764
1215.1121,0.041348
1216.9758,0.041995
1218.8395,0.042758
1220.7031,0.043496
1222.5668,0.044233
1224.4305,0.044968
1226.2941,0.045653
1228.1578,0.046276
1230.0215,0.046803
1231.8852,0.047150
1233.7488,0.047259
1235.6125,0.047340
1237.4762,0.047375
1239.3398,0.047323
1241.2035,0.047208
1243.0672,0.046953
1244.9308,0.046542
1246.7945,0.046078
1248.6582,0.045579
1250.5218,0.045057
1252.3855,0.044554
1254.2492,0.044058
1256.1129,0.043540
1257.9765,0.043133
1259.8402,0.042835
1261.7039,0.042560
1263.5675,0.042284
1265.4312,0.041975
1267.2949,0.041675
1269.1585,0.041432
1271.0222,0.041219
1272.8859,0.041009
1274.7495,0.040757
1276.6132,0.040634
1278.4769,0.040508
1280.3405,0.040472
1282.2042,0.040419
1284.0679,0.040219
1285.9316,0.040172
1287.7952,0.040255
1289.6589,0.040299
1291.5226,0.040375
1293.3862,0.040472
1295.2499,0.040567
1297.1136,0.040731
1298.9772,0.040999
1300.8409,0.041209
1302.7046,0.041375
1304.5682,0.041612
1306.4319,0.041828
1308.2956,0.042041
1310.1592,0.042175
1312.0229,0.042328
1313.8866,0.042438
1315.7503,0.042364
1317.6139,0.042264
1319.4776,0.042168
1321.3413,0.041869
1323.2049,0.041499
1325.0686,0.041276
1326.9323,0.041025
1328.7959,0.040843
1330.6596,0.040789
1332.5233,0.040747
1334.3869,0.040482
1336.2506,0.040423
1338.1143,0.040911
1339.9780,0.041680
1341.8416,0.041868
1343.7053,0.041610
1345.5690,0.041469
1347.4326,0.041445
1349.2963,0.041340
1351.1600,0.041184
1353.0236,0.041242
1354.8873,0.041530
1356.7510,0.041696
1358.6146,0.041812
1360.4783,0.042510
1362.3420,0.044132
1364.2056,0.045370
1366.0693,0.045738
1367.9330,0.046434
1369.7967,0.047219
1371.6603,0.047796
1373.5240,0.049115
1375.3877,0.050456
1377.2513,0.050671
1379.1150,0.051005
1380.9787,0.051286
1382.8423,0.051326
1384.7060,0.051503
1386.5697,0.052335
1388.4333,0.052944
1390.2970,0.052372
1392.1607,0.052001
1394.0244,0.052730
1395.8880,0.053809
1397.7517,0.054045
1399.6154,0.054336
1401.4790,0.053577
1403.3427,0.052914
1405.2064,0.053000
1407.0700,0.052381
1408.9337,0.051235
1410.7974,0.050394
1412.6610,0.049408
1414.5247,0.048180
1416.3884,0.047573
1418.2520,0.048081
1420.1157,0.048385
1421.9794,0.047268
1423.8431,0.046785
1425.7067,0.046588
1427.5704,0.046219
1429.4341,0.046701
1431.2977,0.047254
1433.1614,0.047399
1435.0251,0.048420
1436.8887,0.050914
1438.7524,0.051154
1440.6161,0.050295
1442.4797,0.050195
1444.3434,0.050172
1446.2071,0.050267
1448.0707,0.050691
1449.9344,0.050244
1451.7981,0.049075
1453.6618,0.048190
1455.5254,0.048338
1457.3891,0.050362
1459.2528,0.048957
1461.1164,0.046251
1462.9801,0.044952
1464.8438,0.045045
1466.7074,0.044009
1468.5711,0.042077
1470.4348,0.040859
1472.2984,0.041175
1474.1621,0.040941
1476.0258,0.039817
1477.8895,0.039022
1479.7531,0.038480
1481.6168,0.038567
1483.4805,0.038604
1485.3441,0.038866
1487.2078,0.040566
1489.0715,0.043499
1490.9351,0.045882
1492.7988,0.045862
1494.6625,0.046604
1496.5261,0.050286
1498.3898,0.053344
1500.2535,0.053915
1502.1171,0.053823
1503.9808,0.054624
1505.8445,0.059796
1507.7082,0.068304
1509.5718,0.068120
1511.4355,0.067617
1513.2992,0.068471
1515.1628,0.069338
1517.0265,0.071401
1518.8902,0.072200
1520.7538,0.073366
1522.6175,0.075827
1524.4812,0.075564
1526.3448,0.076237
1528.2085,0.076637
1530.0722,0.076078
1531.9359,0.075894
1533.7995,0.077244
1535.6632,0.076169
1537.5269,0.074523
1539.3905,0.076949
1541.2542,0.080209
1543.1179,0.078142
1544.9815,0.076179
1546.8452,0.073733
1548.7089,0.071495
1550.5725,0.069793
1552.4362,0.067184
1554.2999,0.064822
1556.1635,0.063033
1558.0272,0.062978
1559.8909,0.064185
1561.7546,0.060102
1563.6182,0.056617
1565.4819,0.054575
1567.3456,0.052778
1569.2092,0.051561
1571.0729,0.050136
1572.9366,0.047932
1574.8002,0.046924
1576.6639,0.047148
1578.5276,0.045868
1580.3912,0.044260
1582.2549,0.043530
1584.1186,0.043035
1585.9822,0.042747
1587.8459,0.042865
1589.7096,0.043207
1591.5733,0.043523
1593.4369,0.044085
1595.3006,0.044824
1597.1643,0.045648
1599.0279,0.046490
1600.8916,0.047368
1602.7553,0.048508
1604.6189,0.049987
1606.4826,0.051541
1608.3463,0.053359
1610.2099,0.054984
1612.0736,0.056376
1613.9373,0.057727
1615.8010,0.060238
1617.6646,0.063738
1619.5283,0.064218
1621.3920,0.064384
1623.2556,0.066799
1625.1193,0.068517
1626.9830,0.068760
1628.8466,0.069215
1630.7103,0.068880
1632.5740,0.068158
1634.4376,0.068713
1636.3013,0.070145
1638.1650,0.068472
1640.0286,0.066165
1641.8923,0.064501
1643.7560,0.062885
1645.6197,0.061834
1647.4833,0.061556
1649.3470,0.059810
1651.2107,0.057514
1653.0743,0.057825
1654.9380,0.056729
1656.8017,0.053422
1658.6653,0.051052
1660.5290,0.048947
1662.3927,0.047060
1664.2563,0.045453
1666.1200,0.043367
1667.9837,0.041483
1669.8474,0.039935
1671.7110,0.038126
1673.5747,0.035965
1675.4384,0.034102
1677.3020,0.031907
1679.1657,0.029796
1681.0294,0.028041
1682.8930,0.026060
1684.7567,0.024262
1686.6204,0.022303
1688.4840,0.020101
1690.3477,0.017900
1692.2114,0.015784
1694.0750,0.013613
1695.9387,0.011138
1697.8024,0.009155
1699.6661,0.006933
1701.5297,0.005278
1703.3934,0.004759
1705.2571,0.003709
1707.1207,0.002476
1708.9844,0.002022
1710.8481,0.001867
1712.7117,0.001798
1714.5754,0.001404
1716.4391,0.000686
1718.3027,0.000056
1720.1664,0.000507
1722.0301,0.000671
1723.8937,0.000586
1725.7574,0.000642
1727.6211,0.000717
1729.4848,0.000719
1731.3484,0.000759
1733.2121,0.000011
1735.0758,-0.000632
1736.9394,0.000140
1738.8031,0.000438
1740.6668,0.000297
1742.5304,0.000339
1744.3941,0.000326
1746.2578,0.000424
1748.1214,0.000248
1749.9851,-0.000307
1751.8488,-0.000823
1753.7125,-0.000674
1755.5761,-0.000794
1757.4398,-0.001047
1759.3035,-0.000857
1761.1671,-0.000913
1763.0308,-0.001217
1764.8945,-0.001173
1766.7581,-0.001181
1768.6218,-0.001080
1770.4855,-0.001063
1772.3491,-0.001511
1774.2128,-0.001588
1776.0765,-0.001323
1777.9401,-0.000948
1779.8038,-0.000827
1781.6675,-0.000879
1783.5312,-0.000929
1785.3948,-0.001183
1787.2585,-0.000953
1789.1222,-0.000291
1790.9858,-0.000336
1792.8495,-0.001174
1794.7132,-0.001075
1796.5768,-0.000712
1798.4405,-0.000627
1800.3042,-0.000644
1802.1678,-0.000717
1804.0315,-0.000797
1805.8952,-0.000614
1807.7589,-0.000495
1809.6225,-0.000578
1811.4862,-0.000844
1813.3499,-0.000860
1815.2135,-0.000748
1817.0772,-0.000886
1818.9409,-0.000870
1820.8045,-0.000464
1822.6682,-0.000243
1824.5319,-0.000389
1826.3955,-0.000642
1828.2592,-0.000733
1830.1229,-0.000840
1831.9865,-0.000884
1833.8502,-0.000871
1835.7139,-0.000533
1837.5776,-0.000378
1839.4412,-0.000278
1841.3049,-0.000170
1843.1686,-0.000476
1845.0322,-0.000759
1846.8959,-0.000514
1848.7596,-0.000443
1850.6232,-0.000250
1852.4869,-0.000294
1854.3506,-0.000656
1856.2142,-0.000739
1858.0779,-0.000506
1859.9416,-0.000492
1861.8052,-0.000331
1863.6689,-0.000062
1865.5326,0.000055
1867.3963,-0.000034
1869.2599,-0.000236
1871.1236,-0.000247
1872.9873,0.000021
1874.8509,0.000110
1876.7146,-0.000303
1878.5783,-0.000409
1880.4419,-0.000085
1882.3056,-0.000094
1884.1693,-0.000167
1886.0329,0.000090
1887.8966,0.000193
1889.7603,-0.000057
1891.6240,-0.000323
1893.4876,-0.000308
1895.3513,-0.000220
1897.2150,-0.000129
1899.0786,0.000083
1900.9423,0.000074
1902.8060,-0.000148
1904.6696,-0.000368
1906.5333,-0.000400
1908.3970,-0.000239
1910.2606,-0.000431
1912.1243,-0.000717
1913.9880,-0.000443
1915.8516,-0.000324
1917.7153,-0.000824
1919.5790,-0.001167
1921.4427,-0.000851
1923.3063,-0.000904
1925.1700,-0.001022
1927.0337,-0.000459
1928.8973,-0.000309
1930.7610,-0.000792
1932.6247,-0.000628
1934.4883,-0.000476
1936.3520,-0.000556
1938.2157,-0.000631
1940.0793,-0.000827
1941.9430,-0.001428
1943.8067,-0.001203
1945.6704,-0.000702
1947.5340,-0.000583
1949.3977,-0.001091
1951.2614,-0.001453
1953.1250,-0.001669
1954.9887,-0.002155
1956.8524,-0.001749
1958.7160,-0.001519
1960.5797,-0.001927
1962.4434,-0.002030
1964.3070,-0.001884
1966.1707,-0.001352
1968.0344,-0.002367
1969.8980,-0.003421
1971.7617,-0.002915
1973.6254,-0.001939
1975.4891,-0.001614
1977.3527,-0.002371
1979.2164,-0.002014
1981.0801,-0.000500
1982.9437,-0.000377
1984.8074,-0.001336
1986.6711,-0.001875
1988.5347,-0.002605
1990.3984,-0.002788
1992.2621,-0.002435
1994.1257,-0.002247
1995.9894,-0.001748
1997.8531,-0.001923
1999.7167,-0.002529
2001.5804,-0.002067
2003.4441,-0.001799
2005.3078,-0.001540
2007.1714,-0.000774
2009.0351,-0.001269
2010.8988,-0.002895
2012.7624,-0.003779
2014.6261,-0.003688
2016.4898,-0.002817
2018.3534,-0.001155
2020.2171,-0.000879
2022.0808,-0.002228
2023.9444,-0.002962
2025.8081,-0.003247
2027.6718,-0.002426
2029.5355,-0.001651
2031.3991,-0.002171
2033.2628,-0.002111
2035.1265,-0.000451
2036.9901,0.000688
2038.8538,0.001167
2040.7175,0.001033
2042.5811,0.000724
2044.4448,0.000947
2046.3085,0.000640
2048.1721,0.000669
2050.0358,0.001423
2051.8995,0.001466
2053.7631,0.001214
2055.6268,0.001231
2057.4905,0.000764
2059.3542,0.001079
2061.2178,0.001943
2063.0815,0.001909
2064.9452,0.001393
2066.8088,0.001157
2068.6725,0.001269
2070.5362,0.001562
2072.3998,0.001825
2074.2635,0.001586
2076.1272,0.001269
2077.9908,0.001183
2079.8545,0.000957
2081.7182,0.000977
2083.5819,0.000448
2085.4455,-0.000601
2087.3092,-0.000912
2089.1729,-0.000629
2091.0365,-0.000411
2092.9002,-0.000409
2094.7639,-0.000654
2096.6275,-0.000479
2098.4912,-0.000254
2100.3549,-0.000430
2102.2185,-0.000529
2104.0822,-0.000452
2105.9459,-0.000200
2107.8095,0.000080
2109.6732,-0.000229
2111.5369,-0.000877
2113.4006,-0.000891
2115.2642,-0.000309
2117.1279,-0.000440
2118.9916,-0.000783
2120.8552,-0.000640
2122.7189,-0.000155
2124.5826,-0.000651
2126.4462,-0.002279
2128.3099,-0.002674
2130.1736,-0.001460
2132.0372,-0.001294
2133.9009,-0.001968
2135.7646,-0.002545
2137.6282,-0.002610
2139.4919,-0.002219
2141.3556,-0.002211
2143.2193,-0.002294
2145.0829,-0.002340
2146.9466,-0.002627
2148.8103,-0.002312
2150.6739,-0.002180
2152.5376,-0.002505
2154.4013,-0.003071
2156.2649,-0.003550
2158.1286,-0.003585
2159.9923,-0.003345
2161.8559,-0.002300
2163.7196,-0.001735
2165.5833,-0.002552
2167.4470,-0.002583
2169.3106,-0.002362
2171.1743,-0.002819
2173.0380,-0.002520
2174.9016,-0.001183
2176.7653,-0.001201
2178.6290,-0.002274
2180.4926,-0.001759
2182.3563,-0.001053
2184.2200,-0.000841
2186.0836,-0.000893
2187.9473,-0.001435
2189.8110,-0.000973
2191.6746,0.000208
2193.5383,0.000750
2195.4020,0.000065
2197.2657,-0.000466
2199.1293,-0.000160
2200.9930,-0.000531
2202.8567,-0.000309
2204.7203,0.001013
2206.5840,0.001094
2208.4477,0.000115
2210.3113,-0.000896
2212.1750,-0.001089
2214.0387,-0.000741
2215.9023,0.000301
2217.7660,0.001532
2219.6297,0.001527
2221.4934,0.000419
2223.3570,-0.000104
2225.2207,0.000067
2227.0844,0.000535
2228.9480,0.000726
2230.8117,0.000832
2232.6754,0.001174
2234.5390,0.001099
2236.4027,0.001024
2238.2664,0.001465
2240.1300,0.001638
2241.9937,0.001214
2243.8574,0.000804
2245.7210,0.000823
2247.5847,0.000502
2249.4484,0.000375
2251.3121,0.001141
2253.1757,0.001798
2255.0394,0.001843
2256.9031,0.001552
2258.7667,0.001060
2260.6304,0.001076
2262.4941,0.002140
2264.3577,0.002321
2266.2214,0.001837
2268.0851,0.001947
2269.9487,0.002111
2271.8124,0.002137
2273.6761,0.002268
2275.5397,0.002261
2277.4034,0.001984
2279.2671,0.002326
2281.1308,0.003048
2282.9944,0.003302
2284.8581,0.003069
2286.7218,0.002848
2288.5854,0.003026
2290.4491,0.003176
2292.3128,0.002753
2294.1764,0.002694
2296.0401,0.003154
2297.9038,0.003149
2299.7674,0.003026
2301.6311,0.003093
2303.4948,0.002665
2305.3585,0.002488
2307.2221,0.002872
2309.0858,0.002973
2310.9495,0.002976
2312.8131,0.003070
2314.6768,0.003079
2316.5405,0.003030
2318.4041,0.002960
2320.2678,0.002800
2322.1315,0.003067
2323.9951,0.003133
2325.8588,0.002740
2327.7225,0.002491
2329.5861,0.002122
2331.4498,0.001808
2333.3135,0.001846
2335.1772,0.001754
2337.0408,0.001571
2338.9045,0.001880
2340.7682,0.002101
2342.6318,0.002253
2344.4955,0.002493
2346.3592,0.002377
2348.2228,0.002441
2350.0865,0.002448
2351.9502,0.002070
2353.8138,0.001550
2355.6775,0.001417
2357.5412,0.001626
2359.4049,0.001633
2361.2685,0.001503
2363.1322,0.001692
2364.9959,0.002565
2366.8595,0.003333
2368.7232,0.003138
2370.5869,0.002902
2372.4505,0.003100
2374.3142,0.003236
2376.1779,0.003347
2378.0415,0.003410
2379.9052,0.003577
2381.7689,0.003589
2383.6325,0.003500
2385.4962,0.003540
2387.3599,0.003795
2389.2236,0.003890
2391.0872,0.003615
2392.9509,0.003566
2394.8146,0.003958
2396.6782,0.004094
2398.5419,0.003847
2400.4056,0.003696
2402.2692,0.003764
2404.1329,0.003912
2405.9966,0.004102
2407.8602,0.004305
2409.7239,0.004105
2411.5876,0.003818
2413.4512,0.004172
2415.3149,0.004493
2417.1786,0.004520
2419.0423,0.004465
2420.9059,0.004161
2422.7696,0.004043
2424.6333,0.004378
2426.4969,0.004620
2428.3606,0.004667
2430.2243,0.004633
2432.0879,0.004553
2433.9516,0.004663
2435.8153,0.004792
2437.6789,0.004628
2439.5426,0.004481
2441.4063,0.004632
2443.2700,0.004771
2445.1336,0.004393
2446.9973,0.004111
2448.8610,0.004451
2450.7246,0.004984
2452.5883,0.005303
2454.4520,0.005468
2456.3156,0.005252
2458.1793,0.004810
2460.0430,0.004772
2461.9066,0.004908
2463.7703,0.004910
2465.6340,0.005100
2467.4976,0.005115
2469.3613,0.005103
2471.2250,0.005542
2473.0887,0.005500
2474.9523,0.005052
2476.8160,0.005049
2478.6797,0.005214
2480.5433,0.005232
2482.4070,0.005316
2484.2707,0.005469
2486.1343,0.005278
2487.9980,0.005003
2489.8617,0.005196
2491.7253,0.005626
2493.5890,0.005929
2495.4527,0.006025
2497.3164,0.005782
2499.1800,0.005706
2501.0437,0.005667
2502.9074,0.005441
2504.7710,0.005470
2506.6347,0.005923
2508.4984,0.006181
2510.3620,0.005901
2512.2257,0.005991
2514.0894,0.006321
2515.9530,0.006182
2517.8167,0.005797
2519.6804,0.005999
2521.5440,0.006395
2523.4077,0.006472
2525.2714,0.006288
2527.1351,0.005872
2528.9987,0.005961
2530.8624,0.006249
2532.7261,0.006390
2534.5897,0.006515
2536.4534,0.006597
2538.3171,0.006601
2540.1807,0.006414
2542.0444,0.006156
2543.9081,0.006212
2545.7717,0.006481
2547.6354,0.006668
2549.4991,0.006542
2551.3627,0.006513
2553.2264,0.006896
2555.0901,0.007111
2556.9538,0.007205
2558.8174,0.007434
2560.6811,0.007375
2562.5448,0.007291
2564.4084,0.007063
2566.2721,0.006659
2568.1358,0.007040
2569.9994,0.007543
2571.8631,0.007266
2573.7268,0.007037
2575.5904,0.007228
2577.4541,0.007601
2579.3178,0.007773
2581.1815,0.007687
2583.0451,0.007751
2584.9088,0.007704
2586.7725,0.007715
2588.6361,0.008011
2590.4998,0.008148
2592.3635,0.008165
2594.2271,0.008087
2596.0908,0.008077
2597.9545,0.008295
2599.8181,0.008591
2601.6818,0.008669
2603.5455,0.008331
2605.4091,0.008310
2607.2728,0.008611
2609.1365,0.008695
2611.0002,0.008613
2612.8638,0.008773
2614.7275,0.009094
2616.5912,0.009053
2618.4548,0.008882
2620.3185,0.009099
2622.1822,0.009545
2624.0458,0.009555
2625.9095,0.009386
2627.7732,0.009439
2629.6368,0.009511
2631.5005,0.009801
2633.3642,0.010233
2635.2279,0.010217
2637.0915,0.010005
2638.9552,0.009874
2640.8189,0.009968
2642.6825,0.010122
2644.5462,0.010106
2646.4099,0.010047
2648.2735,0.010164
2650.1372,0.010423
2652.0009,0.010624
2653.8645,0.010714
2655.7282,0.010663
2657.5919,0.010576
2659.4555,0.010546
2661.3192,0.010459
2663.1829,0.010479
2665.0466,0.010534
2666.9102,0.010412
2668.7739,0.010469
2670.6376,0.010732
2672.5012,0.010804
2674.3649,0.010691
2676.2286,0.010695
2678.0922,0.010850
2679.9559,0.010839
2681.8196,0.010836
2683.6832,0.011124
2685.5469,0.011235
2687.4106,0.011159
2689.2742,0.011362
2691.1379,0.011659
2693.0016,0.011714
2694.8653,0.011586
2696.7289,0.011528
2698.5926,0.011558
2700.4563,0.011715
2702.3199,0.011767
2704.1836,0.011669
2706.0473,0.011747
2707.9109,0.011983
2709.7746,0.012111
2711.6383,0.012181
2713.5019,0.012121
2715.3656,0.012113
2717.2293,0.012291
2719.0930,0.012481
2720.9566,0.012702
2722.8203,0.012876
2724.6840,0.012973
2726.5476,0.012982
2728.4113,0.012892
2730.2750,0.012914
2732.1386,0.013064
2734.0023,0.013135
2735.8660,0.013179
2737.7296,0.013416
2739.5933,0.013612
2741.4570,0.013561
2743.3206,0.013529
2745.1843,0.013573
2747.0480,0.013698
2748.9117,0.013939
2750.7753,0.014114
2752.6390,0.014201
2754.5027,0.014321
2756.3663,0.014458
2758.2300,0.014561
2760.0937,0.014638
2761.9573,0.014673
2763.8210,0.014772
2765.6847,0.014818
2767.5483,0.014811
2769.4120,0.014943
2771.2757,0.015080
2773.1394,0.015188
2775.0030,0.015249
2776.8667,0.015258
2778.7304,0.015512
2780.5940,0.015856
2782.4577,0.015948
2784.3214,0.015909
2786.1850,0.015881
2788.0487,0.016103
2789.9124,0.016611
2791.7760,0.016658
2793.6397,0.016237
2795.5034,0.016306
2797.3670,0.016757
2799.2307,0.016935
2801.0944,0.016914
2802.9581,0.016989
2804.8217,0.017073
2806.6854,0.017285
2808.5491,0.017590
2810.4127,0.017630
2812.2764,0.017753
2814.1401,0.017863
2816.0037,0.017828
2817.8674,0.018013
2819.7311,0.018233
2821.5947,0.018372
2823.4584,0.018582
2825.3221,0.018606
2827.1857,0.018665
2829.0494,0.018934
2830.9131,0.019173
2832.7768,0.019492
2834.6404,0.019857
2836.5041,0.020097
2838.3678,0.020254
2840.2314,0.020462
2842.0951,0.020950
2843.9588,0.021582
2845.8224,0.021928
2847.6861,0.022085
2849.5498,0.022375
2851.4134,0.022850
2853.2771,0.023079
2855.1408,0.022976
2857.0045,0.023136
2858.8681,0.023477
2860.7318,0.023588
2862.5955,0.023538
2864.4591,0.023684
2866.3228,0.024065
2868.1865,0.024365
2870.0501,0.024484
2871.9138,0.024587
2873.7775,0.024762
2875.6411,0.024783
2877.5048,0.024630
2879.3685,0.024590
2881.2321,0.024399
2883.0958,0.024113
2884.9595,0.024204
2886.8232,0.024345
2888.6868,0.024294
2890.5505,0.024378
2892.4142,0.024453
2894.2778,0.024315
2896.1415,0.024400
2898.0052,0.024665
2899.8688,0.024807
2901.7325,0.025059
2903.5962,0.025517
2905.4598,0.025856
2907.3235,0.025943
2909.1872,0.026362
2911.0509,0.026999
2912.9145,0.027216
2914.7782,0.027359
2916.6419,0.027868
2918.5055,0.028321
2920.3692,0.028572
2922.2329,0.028588
2924.0965,0.028403
2925.9602,0.028383
2927.8239,0.028269
2929.6875,0.028079
2931.5512,0.028198
2933.4149,0.027843
2935.2785,0.027150
2937.1422,0.026852
2939.0059,0.026311
2940.8696,0.025694
2942.7332,0.025536
2944.5969,0.025438
2946.4606,0.025096
2948.3242,0.024743
2950.1879,0.024594
2952.0516,0.024739
2953.9152,0.024914
2955.7789,0.024994
2957.6426,0.024860
2959.5062,0.024288
2961.3699,0.023841
2963.2336,0.023568
2965.0972,0.023116
2966.9609,0.022715
2968.8246,0.022202
2970.6883,0.021542
2972.5519,0.021089
2974.4156,0.021017
2976.2793,0.020833
2978.1429,0.019987
2980.0066,0.018984
2981.8703,0.018383
2983.7339,0.018016
2985.5976,0.017634
2987.4613,0.017172
2989.3249,0.016892
2991.1886,0.016847
2993.0523,0.016439
2994.9160,0.015662
2996.7796,0.015405
2998.6433,0.015690
3000.5070,0.015804
3002.3706,0.015523
3004.2343,0.015227
3006.0980,0.015276
3007.9616,0.015092
3009.8253,0.014647
3011.6890,0.014588
3013.5526,0.014809
3015.4163,0.014950
3017.2800,0.014893
3019.1436,0.014840
3021.0073,0.014778
3022.8710,0.014634
3024.7347,0.014648
3026.5983,0.014568
3028.4620,0.014358
3030.3257,0.014439
3032.1893,0.014502
3034.0530,0.014373
3035.9167,0.014263
3037.7803,0.014130
3039.6440,0.014042
3041.5077,0.014082
3043.3713,0.014263
3045.2350,0.014178
3047.0987,0.013795
3048.9624,0.013809
3050.8260,0.013958
3052.6897,0.013761
3054.5534,0.013570
3056.4170,0.013316
3058.2807,0.013231
3060.1444,0.013186
3062.0080,0.012883
3063.8717,0.012882
3065.7354,0.012625
3067.5990,0.012081
3069.4627,0.012001
3071.3264,0.011887
3073.1900,0.011400
3075.0537,0.010775
3076.9174,0.010496
3078.7811,0.010720
3080.6447,0.010686
3082.5084,0.010091
3084.3721,0.009566
3086.2357,0.009311
3088.0994,0.008960
3089.9631,0.008340
3091.8267,0.007809
3093.6904,0.007524
3095.5541,0.007298
3097.4177,0.007144
3099.2814,0.006826
3101.1451,0.006271
3103.0087,0.005440
3104.8724,0.004758
3106.7361,0.004605
3108.5998,0.004359
3110.4634,0.003918
3112.3271,0.003710
3114.1908,0.003584
3116.0544,0.003395
3117.9181,0.003137
3119.7818,0.002756
3121.6454,0.002267
3123.5091,0.001903
3125.3728,0.002002
3127.2364,0.001833
3129.1001,0.001424
3130.9638,0.001505
3132.8275,0.001321
3134.6911,0.000724
3136.5548,0.000441
3138.4185,0.000469
3140.2821,0.000476
3142.1458,0.000301
3144.0095,0.000195
3145.8731,0.000065
3147.7368,-0.000226
3149.6005,-0.000268
3151.4641,-0.000066
3153.3278,-0.000189
3155.1915,-0.000924
3157.0551,-0.001374
3158.9188,-0.001002
3160.7825,-0.000645
3162.6462,-0.000714
3164.5098,-0.000934
3166.3735,-0.000965
3168.2372,-0.000958
3170.1008,-0.001004
3171.9645,-0.001037
3173.8282,-0.001100
3175.6918,-0.001237
3177.5555,-0.001095
3179.4192,-0.000768
3181.2828,-0.000782
3183.1465,-0.000847
3185.0102,-0.000993
3186.8739,-0.000939
3188.7375,-0.000916
3190.6012,-0.001280
3192.4649,-0.001213
3194.3285,-0.001308
3196.1922,-0.002031
3198.0559,-0.001939
3199.9195,-0.001381
3201.7832,-0.001472
3203.6469,-0.001539
3205.5105,-0.001382
3207.3742,-0.001468
3209.2379,-0.001485
3211.1015,-0.001621
3212.9652,-0.002203
3214.8289,-0.002478
3216.6926,-0.002210
3218.5562,-0.002186
3220.4199,-0.002207
3222.2836,-0.001812
3224.1472,-0.001602
3226.0109,-0.001691
3227.8746,-0.001647
3229.7382,-0.001527
3231.6019,-0.001599
3233.4656,-0.001663
3235.3292,-0.001650
3237.1929,-0.001656
3239.0566,-0.001411
3240.9202,-0.001143
3242.7839,-0.001082
3244.6476,-0.000961
3246.5113,-0.000662
3248.3749,-0.000639
3250.2386,-0.000454
3252.1023,-0.000177
3253.9659,-0.000090
3255.8296,0.000453
3257.6933,0.000609
3259.5569,-0.000076
3261.4206,-0.000088
3263.2843,0.000577
3265.1479,0.000809
3267.0116,0.000714
3268.8753,0.000664
3270.7390,0.000775
3272.6026,0.000823
3274.4663,0.000883
3276.3300,0.001001
3278.1936,0.000817
3280.0573,0.000368
3281.9210,0.000223
3283.7846,0.000338
3285.6483,0.000251
3287.5120,-0.000082
3289.3756,-0.000503
3291.2393,-0.000664
3293.1030,-0.000873
3294.9666,-0.001029
3296.8303,-0.001205
3298.6940,-0.001759
3300.5577,-0.002335
3302.4213,-0.002417
3304.2850,-0.002246
3306.1487,-0.002677
3308.0123,-0.003041
3309.8760,-0.003030
3311.7397,-0.003339
3313.6033,-0.003943
3315.4670,-0.004760
3317.3307,-0.004959
3319.1943,-0.004910
3321.0580,-0.005338
3322.9217,-0.005430
3324.7854,-0.005295
3326.6490,-0.005623
3328.5127,-0.006138
3330.3764,-0.006476
3332.2400,-0.006515
3334.1037,-0.006408
3335.9674,-0.006615
3337.8310,-0.007156
3339.6947,-0.007272
3341.5584,-0.007188
3343.4220,-0.007569
3345.2857,-0.007749
3347.1494,-0.007716
3349.0130,-0.007912
3350.8767,-0.008368
3352.7404,-0.008554
3354.6041,-0.008215
3356.4677,-0.007994
3358.3314,-0.008591
3360.1951,-0.009477
3362.0587,-0.009770
3363.9224,-0.009603
3365.7861,-0.009680
3367.6497,-0.009744
3369.5134,-0.009290
3371.3771,-0.008942
3373.2407,-0.009190
3375.1044,-0.009855
3376.9681,-0.010213
3378.8317,-0.009846
3380.6954,-0.009879
3382.5591,-0.010191
3384.4228,-0.010201
3386.2864,-0.010433
3388.1501,-0.010091
3390.0138,-0.009669
3391.8774,-0.009844
3393.7411,-0.009761
3395.6048,-0.010037
3397.4684,-0.010314
3399.3321,-0.009936
3401.1958,-0.009468
3403.0594,-0.009327
3404.9231,-0.009658
3406.7868,-0.009868
3408.6505,-0.009513
3410.5141,-0.009505
3412.3778,-0.010096
3414.2415,-0.010068
3416.1051,-0.009626
3417.9688,-0.009419
3419.8325,-0.009706
3421.6961,-0.009777
3423.5598,-0.009389
3425.4235,-0.009168
3427.2871,-0.009024
3429.1508,-0.009230
3431.0145,-0.009616
3432.8781,-0.009309
3434.7418,-0.008769
3436.6055,-0.008595
3438.4692,-0.008816
3440.3328,-0.009218
3442.1965,-0.009097
3444.0602,-0.008918
3445.9238,-0.008924
3447.7875,-0.008562
3449.6512,-0.008488
3451.5148,-0.008897
3453.3785,-0.008777
3455.2422,-0.008196
3457.1058,-0.008115
3458.9695,-0.008275
3460.8332,-0.008318
3462.6969,-0.008319
3464.5605,-0.008438
3466.4242,-0.008352
3468.2879,-0.007998
3470.1515,-0.007649
3472.0152,-0.007735
3473.8789,-0.008249
3475.7425,-0.008413
3477.6062,-0.008357
3479.4699,-0.008665
3481.3335,-0.009092
3483.1972,-0.008862
3485.0609,-0.008570
3486.9245,-0.008310
3488.7882,-0.008222
3490.6519,-0.008497
3492.5156,-0.008422
3494.3792,-0.008417
3496.2429,-0.008409
3498.1066,-0.008531
3499.9702,-0.008683
3501.8339,-0.009026
3503.6976,-0.009044
3505.5612,-0.008471
3507.4249,-0.008483
3509.2886,-0.009088
3511.1522,-0.009339
3513.0159,-0.008993
3514.8796,-0.009240
3516.7432,-0.009458
3518.6069,-0.009074
3520.4706,-0.008712
3522.3343,-0.008901
3524.1979,-0.009565
3526.0616,-0.009823
3527.9253,-0.009273
3529.7889,-0.009128
3531.6526,-0.009698
3533.5163,-0.009813
3535.3799,-0.009428
3537.2436,-0.008910
3539.1073,-0.008947
3540.9709,-0.009340
3542.8346,-0.009856
3544.6983,-0.010115
3546.5620,-0.009700
3548.4256,-0.009437
3550.2893,-0.009606
3552.1530,-0.009863
3554.0166,-0.009849
3555.8803,-0.009710
3557.7440,-0.009871
3559.6076,-0.009647
3561.4713,-0.009353
3563.3350,-0.009465
3565.1986,-0.009878
3567.0623,-0.010477
3568.9260,-0.010328
3570.7896,-0.009900
3572.6533,-0.010207
3574.5170,-0.010663
3576.3807,-0.010419
3578.2443,-0.010463
3580.1080,-0.010827
3581.9717,-0.010551
3583.8353,-0.010515
3585.6990,-0.010601
3587.5627,-0.010402
3589.4263,-0.010421
3591.2900,-0.010372
3593.1537,-0.010635
3595.0173,-0.010828
3596.8810,-0.010523
3598.7447,-0.010321
3600.6084,-0.010347
3602.4720,-0.010550
3604.3357,-0.010912
3606.1994,-0.011060
3608.0630,-0.010879
3609.9267,-0.010793
3611.7904,-0.010747
3613.6540,-0.010904
3615.5177,-0.011054
3617.3814,-0.011021
3619.2450,-0.011151
3621.1087,-0.011330
3622.9724,-0.010900
3624.8360,-0.010466
3626.6997,-0.010693
3628.5634,-0.011261
3630.4271,-0.011570
3632.2907,-0.010731
3634.1544,-0.010213
3636.0181,-0.010452
3637.8817,-0.010357
3639.7454,-0.009969
3641.6091,-0.009765
3643.4727,-0.009764
3645.3364,-0.009479
3647.2001,-0.009739
3649.0637,-0.010745
3650.9274,-0.010691
3652.7911,-0.009694
3654.6547,-0.009270
3656.5184,-0.009494
3658.3821,-0.009289
3660.2458,-0.008823
3662.1094,-0.008679
3663.9731,-0.008663
3665.8368,-0.008311
3667.7004,-0.007740
3669.5641,-0.008142
3671.4278,-0.008497
3673.2914,-0.007337
3675.1551,-0.007659
3677.0188,-0.008643
3678.8824,-0.007827
3680.7461,-0.007014
3682.6098,-0.006415
3684.4735,-0.005865
3686.3371,-0.005665
3688.2008,-0.006395
3690.0645,-0.007081
3691.9281,-0.006779
3693.7918,-0.006654
3695.6555,-0.006365
3697.5191,-0.006058
3699.3828,-0.005679
3701.2465,-0.005286
3703.1101,-0.005246
3704.9738,-0.005058
3706.8375,-0.004777
3708.7011,-0.004623
3710.5648,-0.005295
3712.4285,-0.006315
3714.2922,-0.006288
3716.1558,-0.005478
3718.0195,-0.004824
3719.8832,-0.004505
3721.7468,-0.004591
3723.6105,-0.004782
3725.4742,-0.004684
3727.3378,-0.004908
3729.2015,-0.005039
3731.0652,-0.004579
3732.9288,-0.004518
3734.7925,-0.005531
3736.6562,-0.006196
3738.5199,-0.005101
3740.3835,-0.003939
3742.2472,-0.003835
3744.1109,-0.004205
3745.9745,-0.004898
3747.8382,-0.004558
3749.7019,-0.004580
3751.5655,-0.005519
3753.4292,-0.005464
3755.2929,-0.004816
3757.1565,-0.004378
3759.0202,-0.004148
3760.8839,-0.004191
3762.7475,-0.004061
3764.6112,-0.003628
3766.4749,-0.003650
3768.3386,-0.003667
3770.2022,-0.003898
3772.0659,-0.004394
3773.9296,-0.004449
3775.7932,-0.004026
3777.6569,-0.003707
3779.5206,-0.004093
3781.3842,-0.004123
3783.2479,-0.003803
3785.1116,-0.003874
3786.9752,-0.003901
3788.8389,-0.003954
3790.7026,-0.004000
3792.5662,-0.004090
3794.4299,-0.004284
3796.2936,-0.004452
3798.1573,-0.004102
3800.0209,-0.003622
3801.8846,-0.004218
3803.7483,-0.004698
3805.6119,-0.004160
3807.4756,-0.004486
3809.3393,-0.004335
3811.2029,-0.003266
3813.0666,-0.003101
3814.9303,-0.003891
3816.7939,-0.004639
3818.6576,-0.004262
3820.5213,-0.004087
3822.3850,-0.004691
3824.2486,-0.004379
3826.1123,-0.003802
3827.9760,-0.003677
3829.8396,-0.003672
3831.7033,-0.003518
3833.5670,-0.003480
3835.4306,-0.003448
3837.2943,-0.003938
3839.1580,-0.004837
3841.0216,-0.004883
3842.8853,-0.004425
3844.7490,-0.004108
3846.6126,-0.003888
3848.4763,-0.003514
3850.3400,-0.003142
3852.2037,-0.003464
3854.0673,-0.004652
3855.9310,-0.004991
3857.7947,-0.003942
3859.6583,-0.003276
3861.5220,-0.003092
3863.3857,-0.003737
3865.2493,-0.004409
3867.1130,-0.003872
3868.9767,-0.003728
3870.8403,-0.004654
3872.7040,-0.004672
3874.5677,-0.004077
3876.4314,-0.003577
3878.2950,-0.003262
3880.1587,-0.003342
3882.0224,-0.003482
3883.8860,-0.003782
3885.7497,-0.004260
3887.6134,-0.004343
3889.4770,-0.003749
3891.3407,-0.003625
3893.2044,-0.004005
3895.0680,-0.003817
3896.9317,-0.003244
3898.7954,-0.003169
3900.6590,-0.003600
3902.5227,-0.004024
3904.3864,-0.004231
3906.2501,-0.004070
3908.1137,-0.003608
3909.9774,-0.003125
3911.8411,-0.003013
3913.7047,-0.003268
3915.5684,-0.003341
3917.4321,-0.003596
3919.2957,-0.004223
3921.1594,-0.004246
3923.0231,-0.003939
3924.8867,-0.003723
3926.7504,-0.003146
3928.6141,-0.002302
3930.4777,-0.002498
3932.3414,-0.003512
3934.2051,-0.003946
3936.0688,-0.003555
3937.9324,-0.003267
3939.7961,-0.003018
3941.6598,-0.003165
3943.5234,-0.003840
3945.3871,-0.003920
3947.2508,-0.003466
3949.1144,-0.003283
3950.9781,-0.003415
3952.8418,-0.003473
3954.7054,-0.003541
3956.5691,-0.003516
3958.4328,-0.003175
3960.2965,-0.003359
3962.1601,-0.003764
3964.0238,-0.003738
3965.8875,-0.003338
3967.7511,-0.002897
3969.6148,-0.002829
3971.4785,-0.003086
3973.3421,-0.003380
3975.2058,-0.003357
3977.0695,-0.003159
3978.9331,-0.003314
3980.7968,-0.003498
3982.6605,-0.003408
3984.5241,-0.003284
3986.3878,-0.003073
3988.2515,-0.003048
3990.1152,-0.003234
3991.9788,-0.003200
3993.8425,-0.003115
3995.7062,-0.003252
3997.5698,-0.003403
3999.4335,-0.003076
