Wavenumber,Intensity
650.4205,0.181260
652.2841,0.178971
654.1478,0.177060
656.0115,0.176618
657.8751,0.175589
659.7388,0.174465
661.6025,0.175875
663.4661,0.176537
665.3298,0.173203
667.1935,0.168212
669.0571,0.173604
670.9208,0.172767
672.7845,0.170692
674.6481,0.169104
676.5118,0.169541
678.3755,0.168538
680.2392,0.167891
682.1028,0.166811
683.9665,0.165027
685.8302,0.161808
687.6938,0.160908
689.5575,0.160628
691.4212,0.159966
693.2848,0.158655
695.1485,0.158087
697.0122,0.157433
698.8758,0.156218
700.7395,0.154512
702.6032,0.154066
704.4669,0.151358
706.3305,0.148993
708.1942,0.147241
710.0579,0.145192
711.9215,0.143812
713.7852,0.142963
715.6489,0.142002
717.5125,0.140692
719.3762,0.138541
721.2399,0.137511
723.1035,0.135946
724.9672,0.133842
726.8309,0.133010
728.6945,0.132304
730.5582,0.130928
732.4219,0.130414
734.2856,0.130002
736.1492,0.129676
738.0129,0.129163
739.8766,0.128715
741.7402,0.128357
743.6039,0.128050
745.4676,0.127402
747.3312,0.126433
749.1949,0.125088
751.0586,0.123816
752.9222,0.123070
754.7859,0.122681
756.6496,0.122189
758.5132,0.121797
760.3769,0.121578
762.2406,0.121621
764.1043,0.121664
765.9679,0.121145
767.8316,0.119956
769.6953,0.118701
771.5589,0.117228
773.4226,0.116119
775.2863,0.115033
777.1499,0.114025
779.0136,0.113138
780.8773,0.112159
782.7409,0.111794
784.6046,0.111458
786.4683,0.110769
788.3320,0.109960
790.1956,0.108915
792.0593,0.108091
793.9230,0.107633
795.7866,0.107556
797.6503,0.106913
799.5140,0.106134
801.3776,0.106135
803.2413,0.106659
805.1050,0.106348
806.9686,0.105883
808.8323,0.105584
810.6960,0.105441
812.5596,0.105134
814.4233,0.104854
816.2870,0.104723
818.1507,0.104197
820.0143,0.103086
821.8780,0.101426
823.7417,0.099561
825.6053,0.097777
827.4690,0.095826
829.3327,0.093921
831.1963,0.092256
833.0600,0.091147
834.9237,0.090246
836.7873,0.089480
838.6510,0.088563
840.5147,0.087705
842.3784,0.086817
844.2420,0.086185
846.1057,0.085774
847.9694,0.085491
849.8330,0.085399
851.6967,0.085313
853.5604,0.085044
855.4240,0.085243
857.2877,0.085790
859.1514,0.086266
861.0150,0.086925
862.8787,0.087480
864.7424,0.088023
866.6060,0.088959
868.4697,0.089946
870.3334,0.090760
872.1971,0.091047
874.0607,0.090764
875.9244,0.090334
877.7881,0.090225
879.6517,0.089927
881.5154,0.089315
883.3791,0.088870
885.2427,0.088837
887.1064,0.089075
888.9701,0.089207
890.8337,0.089256
892.6974,0.089490
894.5611,0.089574
896.4247,0.089406
898.2884,0.089070
900.1521,0.088725
902.0158,0.088315
903.8794,0.087982
905.7431,0.087774
907.6068,0.087839
909.4704,0.088288
911.3341,0.089124
913.1978,0.089949
915.0614,0.090764
916.9251,0.091325
918.7888,0.091622
920.6524,0.091854
922.5161,0.092115
924.3798,0.092199
926.2435,0.092380
928.1071,0.092823
929.9708,0.093355
931.8345,0.093810
933.6981,0.094468
935.5618,0.095671
937.4255,0.097227
939.2891,0.098835
941.1528,0.100370
943.0165,0.101913
944.8801,0.103338
946.7438,0.104544
948.6075,0.105488
950.4711,0.106141
952.3348,0.106987
954.1985,0.108181
956.0622,0.110140
957.9258,0.112947
959.7895,0.116184
961.6532,0.119611
963.5168,0.122929
965.3805,0.125387
967.2442,0.126506
969.1078,0.126407
970.9715,0.125674
972.8352,0.124869
974.6988,0.124675
976.5625,0.125288
978.4262,0.126677
980.2899,0.128716
982.1535,0.131363
984.0172,0.133990
985.8809,0.136518
987.7445,0.139266
989.6082,0.142243
991.4719,0.145232
993.3355,0.148433
995.1992,0.151713
997.0629,0.154777
998.9265,0.157385
1000.7902,0.159710
1002.6539,0.162096
1004.5175,0.164793
1006.3812,0.167988
1008.2449,0.171913
1010.1086,0.176293
1011.9722,0.180707
1013.8359,0.184649
1015.6996,0.188278
1017.5632,0.191377
1019.4269,0.193477
1021.2906,0.194695
1023.1542,0.195351
1025.0179,0.195708
1026.8816,0.196319
1028.7452,0.196826
1030.6089,0.196949
1032.4726,0.196747
1034.3362,0.196098
1036.1999,0.194923
1038.0636,0.193487
1039.9273,0.191877
1041.7909,0.190234
1043.6546,0.188505
1045.5183,0.187060
1047.3819,0.185838
1049.2456,0.184966
1051.1093,0.184387
1052.9729,0.183971
1054.8366,0.183692
1056.7003,0.183719
1058.5639,0.183501
1060.4276,0.183285
1062.2913,0.183190
1064.1550,0.183094
1066.0186,0.182866
1067.8823,0.182574
1069.7460,0.182065
1071.6096,0.181063
1073.4733,0.179247
1075.3370,0.176607
1077.2006,0.173231
1079.0643,0.169325
1080.9280,0.164845
1082.7916,0.160016
1084.6553,0.154882
1086.5190,0.150093
1088.3826,0.145914
1090.2463,0.142159
1092.1100,0.138971
1093.9737,0.136381
1095.8373,0.134031
1097.7010,0.131917
1099.5647,0.130007
1101.4283,0.128473
1103.2920,0.127371
1105.1557,0.126626
1107.0193,0.126094
1108.8830,0.125768
1110.7467,0.125474
1112.6103,0.125256
1114.4740,0.124764
1116.3377,0.123854
1118.2014,0.122829
1120.0650,0.121865
1121.9287,0.120840
1123.7924,0.119822
1125.6560,0.118784
1127.5197,0.117617
1129.3834,0.116279
1131.2470,0.114827
1133.1107,0.113190
1134.9744,0.111509
1136.8380,0.109810
1138.7017,0.108267
1140.5654,0.106977
1142.4290,0.106103
1144.2927,0.105624
1146.1564,0.105548
1148.0201,0.105742
1149.8837,0.106117
1151.7474,0.106404
1153.6111,0.106554
1155.4747,0.106639
1157.3384,0.106626
1159.2021,0.106302
1161.0657,0.105667
1162.9294,0.104877
1164.7931,0.103821
1166.6567,0.102240
1168.5204,0.100130
1170.3841,0.097512
1172.2477,0.094359
1174.1114,0.090972
1175.9751,0.087800
1177.8388,0.085042
1179.7024,0.083000
1181.5661,0.081749
1183.4298,0.081200
1185.2934,0.081194
1187.1571,0.081648
1189.0208,0.082499
1190.8844,0.083651
1192.7481,0.084899
1194.6118,0.086395
1196.4754,0.088310
1198.3391,0.090319
1200.2028,0.092231
1202.0665,0.094178
1203.9301,0.095990
1205.7938,0.097666
1207.6575,0.099175
1209.5211,0.100399
1211.3848,0.101610
1213.2485,0.103078
1215.1121,0.104593
1216.9758,0.106033
1218.8395,0.107453
1220.7031,0.108872
1222.5668,0.110134
1224.4305,0.111320
1226.2941,0.112313
1228.1578,0.113005
1230.0215,0.113378
1231.8852,0.113617
1233.7488,0.113754
1235.6125,0.113727
1237.4762,0.113296
1239.3398,0.112684
1241.2035,0.112141
1243.0672,0.111493
1244.9308,0.110664
1246.7945,0.109845
1248.6582,0.109103
1250.5218,0.108333
1252.3855,0.107502
1254.2492,0.106669
1256.1129,0.105815
1257.9765,0.105136
1259.8402,0.104561
1261.7039,0.103782
1263.5675,0.102796
1265.4312,0.101915
1267.2949,0.101093
1269.1585,0.100333
1271.0222,0.099926
1272.8859,0.099746
1274.7495,0.099505
1276.6132,0.099334
1278.4769,0.099212
1280.3405,0.099236
1282.2042,0.099262
1284.0679,0.099184
1285.9316,0.099186
1287.7952,0.099625
1289.6589,0.100042
1291.5226,0.100303
1293.3862,0.100697
1295.2499,0.101230
1297.1136,0.101911
1298.9772,0.102706
1300.8409,0.103360
1302.7046,0.103937
1304.5682,0.104369
1306.4319,0.104804
1308.2956,0.105118
1310.1592,0.105129
1312.0229,0.105291
1313.8866,0.105364
1315.7503,0.104833
1317.6139,0.104532
1319.4776,0.104343
1321.3413,0.103511
1323.2049,0.102516
1325.0686,0.101738
1326.9323,0.101012
1328.7959,0.100522
1330.6596,0.100230
1332.5233,0.100151
1334.3869,0.099838
1336.2506,0.099750
1338.1143,0.100851
1339.9780,0.102708
1341.8416,0.102991
1343.7053,0.102410
1345.5690,0.102217
1347.4326,0.102244
1349.2963,0.102281
1351.1600,0.102492
1353.0236,0.102950
1354.8873,0.103695
1356.7510,0.104056
1358.6146,0.104220
1360.4783,0.105773
1362.3420,0.109923
1364.2056,0.112702
1366.0693,0.113356
1367.9330,0.115233
1369.7967,0.116884
1371.6603,0.117450
1373.5240,0.119764
1375.3877,0.121954
1377.2513,0.121911
1379.1150,0.122082
1380.9787,0.122009
1382.8423,0.121170
1384.7060,0.120516
1386.5697,0.121877
1388.4333,0.122724
1390.2970,0.120582
1392.1607,0.118808
1394.0244,0.119829
1395.8880,0.121093
1397.7517,0.121052
1399.6154,0.121173
1401.4790,0.119157
1403.3427,0.117873
1405.2064,0.118024
1407.0700,0.116722
1408.9337,0.114988
1410.7974,0.114173
1412.6610,0.112638
1414.5247,0.110354
1416.3884,0.109244
1418.2520,0.111759
1420.1157,0.113501
1421.9794,0.111389
1423.8431,0.111216
1425.7067,0.110879
1427.5704,0.110397
1429.4341,0.112041
1431.2977,0.112962
1433.1614,0.111997
1435.0251,0.113533
1436.8887,0.119276
1438.7524,0.119707
1440.6161,0.117709
1442.4797,0.117083
1444.3434,0.116567
1446.2071,0.116933
1448.0707,0.118194
1449.9344,0.116988
1451.7981,0.114064
1453.6618,0.111067
1455.5254,0.111644
1457.3891,0.117113
1459.2528,0.114471
1461.1164,0.108648
1462.9801,0.106470
1464.8438,0.107726
1466.7074,0.105758
1468.5711,0.101053
1470.4348,0.098492
1472.2984,0.100763
1474.1621,0.101775
1476.0258,0.100273
1477.8895,0.098575
1479.7531,0.097758
1481.6168,0.098796
1483.4805,0.098867
1485.3441,0.099153
1487.2078,0.102976
1489.0715,0.110819
1490.9351,0.116460
1492.7988,0.115338
1494.6625,0.116738
1496.5261,0.125101
1498.3898,0.132555
1500.2535,0.134081
1502.1171,0.132396
1503.9808,0.132192
1505.8445,0.142481
1507.7082,0.160855
1509.5718,0.160793
1511.4355,0.159557
1513.2992,0.160385
1515.1628,0.161900
1517.0265,0.164537
1518.8902,0.164587
1520.7538,0.167056
1522.6175,0.170819
1524.4812,0.170461
1526.3448,0.171961
1528.2085,0.172350
1530.0722,0.170867
1531.9359,0.171139
1533.7995,0.173330
1535.6632,0.170173
1537.5269,0.167097
1539.3905,0.168946
1541.2542,0.171904
1543.1179,0.169818
1544.9815,0.167150
1546.8452,0.162580
1548.7089,0.158660
1550.5725,0.154691
1552.4362,0.149879
1554.2999,0.144737
1556.1635,0.139628
1558.0272,0.139710
1559.8909,0.140745
1561.7546,0.133404
1563.6182,0.128308
1565.4819,0.124537
1567.3456,0.121298
1569.2092,0.119869
1571.0729,0.116798
1572.9366,0.112327
1574.8002,0.111152
1576.6639,0.112674
1578.5276,0.110479
1580.3912,0.108091
1582.2549,0.107352
1584.1186,0.107212
1585.9822,0.107408
1587.8459,0.107982
1589.7096,0.109070
1591.5733,0.110701
1593.4369,0.112927
1595.3006,0.115785
1597.1643,0.118497
1599.0279,0.121059
1600.8916,0.124248
1602.7553,0.128301
1604.6189,0.132499
1606.4826,0.137037
1608.3463,0.142444
1610.2099,0.147400
1612.0736,0.151070
1613.9373,0.154585
1615.8010,0.161739
1617.6646,0.170433
1619.5283,0.172839
1621.3920,0.175541
1623.2556,0.181723
1625.1193,0.186050
1626.9830,0.188573
1628.8466,0.190931
1630.7103,0.190936
1632.5740,0.189625
1634.4376,0.190343
1636.3013,0.191756
1638.1650,0.189503
1640.0286,0.186096
1641.8923,0.182222
1643.7560,0.178251
1645.6197,0.175685
1647.4833,0.172256
1649.3470,0.166836
1651.2107,0.163217
1653.0743,0.161630
1654.9380,0.156192
1656.8017,0.150651
1658.6653,0.145060
1660.5290,0.139542
1662.3927,0.134225
1664.2563,0.128052
1666.1200,0.122434
1667.9837,0.117843
1669.8474,0.112539
1671.7110,0.107020
1673.5747,0.102676
1675.4384,0.098526
1677.3020,0.093261
1679.1657,0.088576
1681.0294,0.083428
1682.8930,0.079230
1684.7567,0.074892
1686.6204,0.070025
1688.4840,0.066027
1690.3477,0.061439
1692.2114,0.056238
1694.0750,0.051795
1695.9387,0.046974
1697.8024,0.042007
1699.6661,0.038882
1701.5297,0.035190
1703.3934,0.032333
1705.2571,0.030605
1707.1207,0.028636
1708.9844,0.026873
1710.8481,0.025167
1712.7117,0.023907
1714.5754,0.022857
1716.4391,0.022375
1718.3027,0.022193
1720.1664,0.021315
1722.0301,0.020503
1723.8937,0.020163
1725.7574,0.019507
1727.6211,0.018693
1729.4848,0.018053
1731.3484,0.017813
1733.2121,0.017907
1735.0758,0.018139
1736.9394,0.017455
1738.8031,0.017155
1740.6668,0.017056
1742.5304,0.016862
1744.3941,0.016320
1746.2578,0.015578
1748.1214,0.015013
1749.9851,0.014859
1751.8488,0.014476
1753.7125,0.013766
1755.5761,0.013113
1757.4398,0.012769
1759.3035,0.012463
1761.1671,0.012296
1763.0308,0.011992
1764.8945,0.011682
1766.7581,0.011358
1768.6218,0.011141
1770.4855,0.011039
1772.3491,0.011493
1774.2128,0.011406
1776.0765,0.011014
1777.9401,0.010823
1779.8038,0.010772
1781.6675,0.010785
1783.5312,0.010769
1785.3948,0.010627
1787.2585,0.010541
1789.1222,0.010232
1790.9858,0.010185
1792.8495,0.010398
1794.7132,0.010360
1796.5768,0.010116
1798.4405,0.010066
1800.3042,0.010160
1802.1678,0.010290
1804.0315,0.010190
1805.8952,0.009915
1807.7589,0.009698
1809.6225,0.009773
1811.4862,0.009823
1813.3499,0.009933
1815.2135,0.009746
1817.0772,0.009567
1818.9409,0.009521
1820.8045,0.009616
1822.6682,0.009415
1824.5319,0.009166
1826.3955,0.009288
1828.2592,0.009262
1830.1229,0.009173
1831.9865,0.009186
1833.8502,0.009015
1835.7139,0.009079
1837.5776,0.009058
1839.4412,0.008903
1841.3049,0.008711
1843.1686,0.008831
1845.0322,0.008893
1846.8959,0.008785
1848.7596,0.008683
1850.6232,0.008815
1852.4869,0.009021
1854.3506,0.009091
1856.2142,0.008783
1858.0779,0.008620
1859.9416,0.008805
1861.8052,0.008953
1863.6689,0.008517
1865.5326,0.008209
1867.3963,0.008137
1869.2599,0.008718
1871.1236,0.009016
1872.9873,0.008879
1874.8509,0.008876
1876.7146,0.008943
1878.5783,0.008944
1880.4419,0.008929
1882.3056,0.008395
1884.1693,0.007986
1886.0329,0.008077
1887.8966,0.008141
1889.7603,0.008298
1891.6240,0.008473
1893.4876,0.008418
1895.3513,0.008304
1897.2150,0.008018
1899.0786,0.007878
1900.9423,0.008025
1902.8060,0.008099
1904.6696,0.008050
1906.5333,0.008117
1908.3970,0.007860
1910.2606,0.007804
1912.1243,0.007975
1913.9880,0.007969
1915.8516,0.007692
1917.7153,0.007248
1919.5790,0.006646
1921.4427,0.006611
1923.3063,0.007150
1925.1700,0.007556
1927.0337,0.007183
1928.8973,0.006623
1930.7610,0.006259
1932.6247,0.005977
1934.4883,0.005818
1936.3520,0.005724
1938.2157,0.006013
1940.0793,0.006169
1941.9430,0.006001
1943.8067,0.006249
1945.6704,0.005827
1947.5340,0.004895
1949.3977,0.004589
1951.2614,0.004696
1953.1250,0.003954
1954.9887,0.003314
1956.8524,0.003082
1958.7160,0.003028
1960.5797,0.003174
1962.4434,0.003535
1964.3070,0.003141
1966.1707,0.001756
1968.0344,0.001151
1969.8980,0.001827
1971.7617,0.002164
1973.6254,0.002860
1975.4891,0.001560
1977.3527,0.000202
1979.2164,0.001899
1981.0801,0.003773
1982.9437,0.004222
1984.8074,0.004337
1986.6711,0.003958
1988.5347,0.003168
1990.3984,0.003500
1992.2621,0.004702
1994.1257,0.004405
1995.9894,0.003653
1997.8531,0.002692
1999.7167,0.001941
2001.5804,0.002034
2003.4441,0.002795
2005.3078,0.002829
2007.1714,0.001780
2009.0351,0.001395
2010.8988,0.001799
2012.7624,0.000997
2014.6261,0.000669
2016.4898,0.001371
2018.3534,0.001986
2020.2171,0.002927
2022.0808,0.003310
2023.9444,0.002249
2025.8081,0.001692
2027.6718,0.002554
2029.5355,0.004210
2031.3991,0.004475
2033.2628,0.003811
2035.1265,0.004050
2036.9901,0.005095
2038.8538,0.006001
2040.7175,0.006114
2042.5811,0.005986
2044.4448,0.007907
2046.3085,0.010157
2048.1721,0.010526
2050.0358,0.011276
2051.8995,0.012399
2053.7631,0.011551
2055.6268,0.011247
2057.4905,0.012289
2059.3542,0.013288
2061.2178,0.012497
2063.0815,0.011867
2064.9452,0.011766
2066.8088,0.011569
2068.6725,0.011560
2070.5362,0.011575
2072.3998,0.011579
2074.2635,0.011983
2076.1272,0.012104
2077.9908,0.011638
2079.8545,0.011397
2081.7182,0.011374
2083.5819,0.011189
2085.4455,0.011120
2087.3092,0.010476
2089.1729,0.009835
2091.0365,0.009676
2092.9002,0.009482
2094.7639,0.009294
2096.6275,0.008983
2098.4912,0.009220
2100.3549,0.009593
2102.2185,0.009678
2104.0822,0.009936
2105.9459,0.010119
2107.8095,0.010103
2109.6732,0.009934
2111.5369,0.009957
2113.4006,0.010297
2115.2642,0.010571
2117.1279,0.010022
2118.9916,0.009612
2120.8552,0.009307
2122.7189,0.008897
2124.5826,0.008610
2126.4462,0.007381
2128.3099,0.006616
2130.1736,0.007152
2132.0372,0.007267
2133.9009,0.006826
2135.7646,0.006034
2137.6282,0.005026
2139.4919,0.004271
2141.3556,0.004545
2143.2193,0.004456
2145.0829,0.004278
2146.9466,0.003798
2148.8103,0.001988
2150.6739,0.000994
2152.5376,0.001170
2154.4013,0.001610
2156.2649,0.000898
2158.1286,-0.000019
2159.9923,0.001063
2161.8559,0.002492
2163.7196,0.004267
2165.5833,0.005115
2167.4470,0.003937
2169.3106,0.003424
2171.1743,0.003957
2173.0380,0.003765
2174.9016,0.003956
2176.7653,0.003993
2178.6290,0.003678
2180.4926,0.003288
2182.3563,0.004371
2184.2200,0.005464
2186.0836,0.005723
2187.9473,0.007157
2189.8110,0.007399
2191.6746,0.006442
2193.5383,0.005805
2195.4020,0.005879
2197.2657,0.006460
2199.1293,0.007285
2200.9930,0.008098
2202.8567,0.007306
2204.7203,0.006008
2206.5840,0.005781
2208.4477,0.007028
2210.3113,0.008114
2212.1750,0.007758
2214.0387,0.007638
2215.9023,0.007848
2217.7660,0.007515
2219.6297,0.007486
2221.4934,0.007894
2223.3570,0.008135
2225.2207,0.008336
2227.0844,0.009054
2228.9480,0.009459
2230.8117,0.009319
2232.6754,0.009106
2234.5390,0.008902
2236.4027,0.008463
2238.2664,0.008754
2240.1300,0.009114
2241.9937,0.009247
2243.8574,0.009289
2245.7210,0.009819
2247.5847,0.010557
2249.4484,0.010719
2251.3121,0.010436
2253.1757,0.010343
2255.0394,0.010551
2256.9031,0.011002
2258.7667,0.011546
2260.6304,0.011382
2262.4941,0.010745
2264.3577,0.010779
2266.2214,0.010847
2268.0851,0.011130
2269.9487,0.011860
2271.8124,0.012206
2273.6761,0.012034
2275.5397,0.012093
2277.4034,0.012646
2279.2671,0.013378
2281.1308,0.013746
2282.9944,0.013796
2284.8581,0.013879
2286.7218,0.014051
2288.5854,0.013919
2290.4491,0.013861
2292.3128,0.013790
2294.1764,0.013421
2296.0401,0.013315
2297.9038,0.013797
2299.7674,0.014051
2301.6311,0.013569
2303.4948,0.013079
2305.3585,0.013234
2307.2221,0.013434
2309.0858,0.013445
2310.9495,0.013439
2312.8131,0.013709
2314.6768,0.013856
2316.5405,0.013767
2318.4041,0.013990
2320.2678,0.014225
2322.1315,0.013750
2323.9951,0.013419
2325.8588,0.013604
2327.7225,0.013673
2329.5861,0.013549
2331.4498,0.013032
2333.3135,0.012720
2335.1772,0.013165
2337.0408,0.013697
2338.9045,0.013715
2340.7682,0.014173
2342.6318,0.014733
2344.4955,0.014312
2346.3592,0.013694
2348.2228,0.012745
2350.0865,0.011485
2351.9502,0.010923
2353.8138,0.011273
2355.6775,0.011513
2357.5412,0.011602
2359.4049,0.011792
2361.2685,0.011879
2363.1322,0.012269
2364.9959,0.012994
2366.8595,0.013381
2368.7232,0.014230
2370.5869,0.015458
2372.4505,0.015978
2374.3142,0.015904
2376.1779,0.015602
2378.0415,0.015489
2379.9052,0.015694
2381.7689,0.015729
2383.6325,0.015538
2385.4962,0.015136
2387.3599,0.014971
2389.2236,0.015065
2391.0872,0.014981
2392.9509,0.015021
2394.8146,0.015276
2396.6782,0.015284
2398.5419,0.015072
2400.4056,0.014867
2402.2692,0.015120
2404.1329,0.015496
2405.9966,0.015463
2407.8602,0.015291
2409.7239,0.015345
2411.5876,0.015494
2413.4512,0.015377
2415.3149,0.015445
2417.1786,0.015649
2419.0423,0.015455
2420.9059,0.015512
2422.7696,0.015775
2424.6333,0.016023
2426.4969,0.016001
2428.3606,0.015662
2430.2243,0.015730
2432.0879,0.016208
2433.9516,0.016304
2435.8153,0.016238
2437.6789,0.016256
2439.5426,0.016094
2441.4063,0.016102
2443.2700,0.016367
2445.1336,0.016600
2446.9973,0.016710
2448.8610,0.016765
2450.7246,0.016966
2452.5883,0.016988
2454.4520,0.017083
2456.3156,0.017292
2458.1793,0.017237
2460.0430,0.017274
2461.9066,0.017571
2463.7703,0.017608
2465.6340,0.017427
2467.4976,0.017217
2469.3613,0.017089
2471.2250,0.017124
2473.0887,0.017441
2474.9523,0.017675
2476.8160,0.017450
2478.6797,0.017508
2480.5433,0.017749
2482.4070,0.017539
2484.2707,0.017521
2486.1343,0.017981
2487.9980,0.018318
2489.8617,0.018375
2491.7253,0.018600
2493.5890,0.018706
2495.4527,0.018396
2497.3164,0.018254
2499.1800,0.018508
2501.0437,0.018880
2502.9074,0.019045
2504.7710,0.018842
2506.6347,0.018854
2508.4984,0.019039
2510.3620,0.018977
2512.2257,0.018984
2514.0894,0.019238
2515.9530,0.019257
2517.8167,0.019349
2519.6804,0.019554
2521.5440,0.019521
2523.4077,0.019406
2525.2714,0.019485
2527.1351,0.019868
2528.9987,0.020291
2530.8624,0.020205
2532.7261,0.019954
2534.5897,0.020110
2536.4534,0.020251
2538.3171,0.020358
2540.1807,0.020608
2542.0444,0.020645
2543.9081,0.020657
2545.7717,0.020427
2547.6354,0.020062
2549.4991,0.020395
2551.3627,0.020837
2553.2264,0.020973
2555.0901,0.021417
2556.9538,0.021625
2558.8174,0.021523
2560.6811,0.021410
2562.5448,0.021438
2564.4084,0.021808
2566.2721,0.022160
2568.1358,0.022273
2569.9994,0.022295
2571.8631,0.022332
2573.7268,0.022406
2575.5904,0.022658
2577.4541,0.022924
2579.3178,0.022978
2581.1815,0.023085
2583.0451,0.023030
2584.9088,0.022840
2586.7725,0.022992
2588.6361,0.023513
2590.4998,0.024042
2592.3635,0.024087
2594.2271,0.023971
2596.0908,0.024009
2597.9545,0.024284
2599.8181,0.024768
2601.6818,0.024980
2603.5455,0.024940
2605.4091,0.024955
2607.2728,0.025192
2609.1365,0.025387
2611.0002,0.025732
2612.8638,0.026156
2614.7275,0.026347
2616.5912,0.026246
2618.4548,0.026330
2620.3185,0.026561
2622.1822,0.026626
2624.0458,0.026705
2625.9095,0.026865
2627.7732,0.027061
2629.6368,0.027206
2631.5005,0.027260
2633.3642,0.027560
2635.2279,0.027849
2637.0915,0.027866
2638.9552,0.028036
2640.8189,0.028388
2642.6825,0.028556
2644.5462,0.028635
2646.4099,0.028797
2648.2735,0.029025
2650.1372,0.029162
2652.0009,0.029309
2653.8645,0.029402
2655.7282,0.029399
2657.5919,0.029296
2659.4555,0.029256
2661.3192,0.029325
2663.1829,0.029353
2665.0466,0.029497
2666.9102,0.029701
2668.7739,0.029684
2670.6376,0.029525
2672.5012,0.029676
2674.3649,0.030000
2676.2286,0.029997
2678.0922,0.030129
2679.9559,0.030501
2681.8196,0.030671
2683.6832,0.030717
2685.5469,0.030734
2687.4106,0.030813
2689.2742,0.030939
2691.1379,0.030938
2693.0016,0.031018
2694.8653,0.031265
2696.7289,0.031451
2698.5926,0.031643
2700.4563,0.031718
2702.3199,0.031688
2704.1836,0.031947
2706.0473,0.032267
2707.9109,0.032384
2709.7746,0.032579
2711.6383,0.032844
2713.5019,0.033019
2715.3656,0.033180
2717.2293,0.033274
2719.0930,0.033300
2720.9566,0.033397
2722.8203,0.033610
2724.6840,0.033821
2726.5476,0.034293
2728.4113,0.034796
2730.2750,0.034704
2732.1386,0.034484
2734.0023,0.034590
2735.8660,0.034736
2737.7296,0.035040
2739.5933,0.035409
2741.4570,0.035528
2743.3206,0.035694
2745.1843,0.035903
2747.0480,0.036090
2748.9117,0.036357
2750.7753,0.036557
2752.6390,0.036753
2754.5027,0.036883
2756.3663,0.037051
2758.2300,0.037220
2760.0937,0.037316
2761.9573,0.037628
2763.8210,0.037957
2765.6847,0.038158
2767.5483,0.038362
2769.4120,0.038551
2771.2757,0.038725
2773.1394,0.038750
2775.0030,0.038967
2776.8667,0.039533
2778.7304,0.039879
2780.5940,0.039921
2782.4577,0.040051
2784.3214,0.040295
2786.1850,0.040602
2788.0487,0.041050
2789.9124,0.041471
2791.7760,0.041653
2793.6397,0.041680
2795.5034,0.041831
2797.3670,0.042083
2799.2307,0.042461
2801.0944,0.042675
2802.9581,0.042652
2804.8217,0.043130
2806.6854,0.043682
2808.5491,0.043791
2810.4127,0.044020
2812.2764,0.044466
2814.1401,0.044853
2816.0037,0.045312
2817.8674,0.045705
2819.7311,0.045878
2821.5947,0.046088
2823.4584,0.046421
2825.3221,0.046734
2827.1857,0.047119
2829.0494,0.047605
2830.9131,0.048093
2832.7768,0.048746
2834.6404,0.049473
2836.5041,0.049973
2838.3678,0.050529
2840.2314,0.051187
2842.0951,0.051678
2843.9588,0.052362
2845.8224,0.053429
2847.6861,0.054467
2849.5498,0.055156
2851.4134,0.055622
2853.2771,0.056101
2855.1408,0.056347
2857.0045,0.056427
2858.8681,0.056552
2860.7318,0.056840
2862.5955,0.057203
2864.4591,0.057679
2866.3228,0.058368
2868.1865,0.059059
2870.0501,0.059659
2871.9138,0.060247
2873.7775,0.060523
2875.6411,0.060216
2877.5048,0.059865
2879.3685,0.059719
2881.2321,0.059607
2883.0958,0.059710
2884.9595,0.059804
2886.8232,0.059792
2888.6868,0.059936
2890.5505,0.059972
2892.4142,0.059935
2894.2778,0.060252
2896.1415,0.060706
2898.0052,0.061199
2899.8688,0.062066
2901.7325,0.062911
2903.5962,0.063633
2905.4598,0.064511
2907.3235,0.065064
2909.1872,0.065280
2911.0509,0.065658
2912.9145,0.066448
2914.7782,0.067351
2916.6419,0.068076
2918.5055,0.068803
2920.3692,0.069429
2922.2329,0.069792
2924.0965,0.070034
2925.9602,0.069995
2927.8239,0.069629
2929.6875,0.069454
2931.5512,0.069533
2933.4149,0.069334
2935.2785,0.068878
2937.1422,0.068150
2939.0059,0.067123
2940.8696,0.066182
2942.7332,0.065701
2944.5969,0.065604
2946.4606,0.065518
2948.3242,0.065455
2950.1879,0.065742
2952.0516,0.066031
2953.9152,0.065919
2955.7789,0.065938
2957.6426,0.066050
2959.5062,0.065793
2961.3699,0.065399
2963.2336,0.065017
2965.0972,0.064531
2966.9609,0.063893
2968.8246,0.063158
2970.6883,0.062382
2972.5519,0.061587
2974.4156,0.061004
2976.2793,0.060516
2978.1429,0.059784
2980.0066,0.058937
2981.8703,0.058289
2983.7339,0.057675
2985.5976,0.056896
2987.4613,0.056455
2989.3249,0.056257
2991.1886,0.056106
2993.0523,0.055962
2994.9160,0.055636
2996.7796,0.055430
2998.6433,0.055359
3000.5070,0.055288
3002.3706,0.055485
3004.2343,0.055925
3006.0980,0.056092
3007.9616,0.056079
3009.8253,0.056374
3011.6890,0.056834
3013.5526,0.057320
3015.4163,0.057836
3017.2800,0.058276
3019.1436,0.058416
3021.0073,0.058327
3022.8710,0.058642
3024.7347,0.059412
3026.5983,0.059917
3028.4620,0.060050
3030.3257,0.060627
3032.1893,0.061707
3034.0530,0.062479
3035.9167,0.062714
3037.7803,0.062664
3039.6440,0.062698
3041.5077,0.063469
3043.3713,0.064291
3045.2350,0.064719
3047.0987,0.065348
3048.9624,0.065557
3050.8260,0.065595
3052.6897,0.065926
3054.5534,0.066204
3056.4170,0.066783
3058.2807,0.067369
3060.1444,0.067502
3062.0080,0.067546
3063.8717,0.067764
3065.7354,0.068116
3067.5990,0.068480
3069.4627,0.068461
3071.3264,0.068110
3073.1900,0.068036
3075.0537,0.068300
3076.9174,0.068758
3078.7811,0.069218
3080.6447,0.069099
3082.5084,0.068704
3084.3721,0.068799
3086.2357,0.069021
3088.0994,0.068652
3089.9631,0.068405
3091.8267,0.068520
3093.6904,0.068439
3095.5541,0.068273
3097.4177,0.068160
3099.2814,0.068301
3101.1451,0.068420
3103.0087,0.068736
3104.8724,0.069089
3106.7361,0.068902
3108.5998,0.068838
3110.4634,0.068843
3112.3271,0.068803
3114.1908,0.069207
3116.0544,0.069885
3117.9181,0.070241
3119.7818,0.070185
3121.6454,0.070207
3123.5091,0.070637
3125.3728,0.071126
3127.2364,0.071331
3129.1001,0.071556
3130.9638,0.071969
3132.8275,0.072635
3134.6911,0.073399
3136.5548,0.073788
3138.4185,0.074048
3140.2821,0.074641
3142.1458,0.075560
3144.0095,0.076004
3145.8731,0.076352
3147.7368,0.077286
3149.6005,0.077845
3151.4641,0.078005
3153.3278,0.078700
3155.1915,0.079302
3157.0551,0.079693
3158.9188,0.080429
3160.7825,0.081306
3162.6462,0.081816
3164.5098,0.082156
3166.3735,0.082733
3168.2372,0.083404
3170.1008,0.083947
3171.9645,0.084270
3173.8282,0.084959
3175.6918,0.085756
3177.5555,0.086254
3179.4192,0.087074
3181.2828,0.087813
3183.1465,0.087917
3185.0102,0.088034
3186.8739,0.088621
3188.7375,0.089459
3190.6012,0.090077
3192.4649,0.090145
3194.3285,0.090433
3196.1922,0.091039
3198.0559,0.091523
3199.9195,0.091822
3201.7832,0.092071
3203.6469,0.092465
3205.5105,0.092987
3207.3742,0.093369
3209.2379,0.093636
3211.1015,0.093582
3212.9652,0.093634
3214.8289,0.093833
3216.6926,0.094205
3218.5562,0.094863
3220.4199,0.095280
3222.2836,0.095521
3224.1472,0.095783
3226.0109,0.095983
3227.8746,0.096312
3229.7382,0.096869
3231.6019,0.097301
3233.4656,0.097384
3235.3292,0.097613
3237.1929,0.098138
3239.0566,0.098325
3240.9202,0.098346
3242.7839,0.098744
3244.6476,0.099221
3246.5113,0.099823
3248.3749,0.100284
3250.2386,0.100423
3252.1023,0.100791
3253.9659,0.101371
3255.8296,0.101505
3257.6933,0.101583
3259.5569,0.101872
3261.4206,0.102253
3263.2843,0.102693
3265.1479,0.102807
3267.0116,0.102766
3268.8753,0.102970
3270.7390,0.103394
3272.6026,0.103589
3274.4663,0.103379
3276.3300,0.103058
3278.1936,0.102622
3280.0573,0.102431
3281.9210,0.102503
3283.7846,0.102355
3285.6483,0.102073
3287.5120,0.101763
3289.3756,0.100837
3291.2393,0.099847
3293.1030,0.099476
3294.9666,0.099186
3296.8303,0.098835
3298.6940,0.098502
3300.5577,0.097570
3302.4213,0.096306
3304.2850,0.095715
3306.1487,0.095790
3308.0123,0.095444
3309.8760,0.094792
3311.7397,0.094164
3313.6033,0.093194
3315.4670,0.092428
3317.3307,0.091783
3319.1943,0.090860
3321.0580,0.090114
3322.9217,0.089698
3324.7854,0.089819
3326.6490,0.089455
3328.5127,0.088268
3330.3764,0.087571
3332.2400,0.087580
3334.1037,0.087157
3335.9674,0.086504
3337.8310,0.086191
3339.6947,0.085822
3341.5584,0.085191
3343.4220,0.084659
3345.2857,0.083938
3347.1494,0.083527
3349.0130,0.083485
3350.8767,0.083176
3352.7404,0.082700
3354.6041,0.082125
3356.4677,0.081395
3358.3314,0.081054
3360.1951,0.081166
3362.0587,0.080822
3363.9224,0.079829
3365.7861,0.079420
3367.6497,0.079442
3369.5134,0.079102
3371.3771,0.078509
3373.2407,0.077814
3375.1044,0.077250
3376.9681,0.077233
3378.8317,0.077091
3380.6954,0.076715
3382.5591,0.076544
3384.4228,0.075892
3386.2864,0.075020
3388.1501,0.074942
3390.0138,0.074798
3391.8774,0.074201
3393.7411,0.073552
3395.6048,0.073070
3397.4684,0.072860
3399.3321,0.072943
3401.1958,0.072640
3403.0594,0.071906
3404.9231,0.071392
3406.7868,0.071121
3408.6505,0.070614
3410.5141,0.070362
3412.3778,0.069886
3414.2415,0.069436
3416.1051,0.069397
3417.9688,0.068913
3419.8325,0.068054
3421.6961,0.067631
3423.5598,0.067725
3425.4235,0.067648
3427.2871,0.066610
3429.1508,0.065697
3431.0145,0.065345
3432.8781,0.064987
3434.7418,0.064657
3436.6055,0.064159
3438.4692,0.063456
3440.3328,0.063212
3442.1965,0.063183
3444.0602,0.062589
3445.9238,0.061641
3447.7875,0.061167
3449.6512,0.061203
3451.5148,0.061108
3453.3785,0.060544
3455.2422,0.059806
3457.1058,0.059026
3458.9695,0.058744
3460.8332,0.058667
3462.6969,0.058268
3464.5605,0.057588
3466.4242,0.056758
3468.2879,0.056005
3470.1515,0.055438
3472.0152,0.054922
3473.8789,0.054463
3475.7425,0.054112
3477.6062,0.054065
3479.4699,0.053541
3481.3335,0.052748
3483.1972,0.052289
3485.0609,0.051451
3486.9245,0.050873
3488.7882,0.050514
3490.6519,0.049916
3492.5156,0.049369
3494.3792,0.048718
3496.2429,0.048230
3498.1066,0.047592
3499.9702,0.047041
3501.8339,0.046325
3503.6976,0.045316
3505.5612,0.045174
3507.4249,0.045405
3509.2886,0.045165
3511.1522,0.044427
3513.0159,0.043389
3514.8796,0.042826
3516.7432,0.041800
3518.6069,0.040561
3520.4706,0.039800
3522.3343,0.039410
3524.1979,0.039203
3526.0616,0.038777
3527.9253,0.038897
3529.7889,0.038757
3531.6526,0.037365
3533.5163,0.036717
3535.3799,0.036576
3537.2436,0.035633
3539.1073,0.034800
3540.9709,0.034541
3542.8346,0.034056
3544.6983,0.033527
3546.5620,0.032870
3548.4256,0.032221
3550.2893,0.031764
3552.1530,0.031398
3554.0166,0.030968
3555.8803,0.029948
3557.7440,0.029042
3559.6076,0.028442
3561.4713,0.027533
3563.3350,0.027068
3565.1986,0.027171
3567.0623,0.027217
3568.9260,0.026969
3570.7896,0.026493
3572.6533,0.025504
3574.5170,0.024260
3576.3807,0.023301
3578.2443,0.022888
3580.1080,0.022341
3581.9717,0.021869
3583.8353,0.021258
3585.6990,0.020613
3587.5627,0.020583
3589.4263,0.020391
3591.2900,0.019728
3593.1537,0.019027
3595.0173,0.018285
3596.8810,0.017520
3598.7447,0.017103
3600.6084,0.017046
3602.4720,0.016796
3604.3357,0.016088
3606.1994,0.015038
3608.0630,0.014619
3609.9267,0.014542
3611.7904,0.014113
3613.6540,0.013549
3615.5177,0.012724
3617.3814,0.012448
3619.2450,0.012551
3621.1087,0.012139
3622.9724,0.011730
3624.8360,0.011225
3626.6997,0.010393
3628.5634,0.009974
3630.4271,0.010412
3632.2907,0.010392
3634.1544,0.009503
3636.0181,0.008833
3637.8817,0.008204
3639.7454,0.007628
3641.6091,0.007261
3643.4727,0.006552
3645.3364,0.006040
3647.2001,0.005484
3649.0637,0.004882
3650.9274,0.005190
3652.7911,0.005612
3654.6547,0.005490
3656.5184,0.005035
3658.3821,0.004851
3660.2458,0.004738
3662.1094,0.003996
3663.9731,0.003316
3665.8368,0.002886
3667.7004,0.002285
3669.5641,0.002148
3671.4278,0.002437
3673.2914,0.002340
3675.1551,0.002071
3677.0188,0.001771
3678.8824,0.002087
3680.7461,0.002325
3682.6098,0.001976
3684.4735,0.001345
3686.3371,0.001025
3688.2008,0.001085
3690.0645,0.000804
3691.9281,0.000642
3693.7918,0.001014
3695.6555,0.001231
3697.5191,0.000955
3699.3828,0.000740
3701.2465,0.000550
3703.1101,0.000322
3704.9738,0.000564
3706.8375,0.000492
3708.7011,0.000330
3710.5648,0.000329
3712.4285,-0.000117
3714.2922,-0.000266
3716.1558,0.000648
3718.0195,0.001015
3719.8832,0.000487
3721.7468,-0.000135
3723.6105,-0.000382
3725.4742,-0.000233
3727.3378,-0.000115
3729.2015,-0.000029
3731.0652,-0.000137
3732.9288,-0.000779
3734.7925,-0.000923
3736.6562,-0.000532
3738.5199,-0.000104
3740.3835,0.000127
3742.2472,0.000337
3744.1109,-0.000008
3745.9745,-0.000490
3747.8382,-0.000246
3749.7019,-0.000217
3751.5655,-0.000219
3753.4292,0.000441
3755.2929,0.000856
3757.1565,0.000534
3759.0202,0.000219
3760.8839,0.000256
3762.7475,0.000475
3764.6112,0.000502
3766.4749,0.000582
3768.3386,0.000657
3770.2022,0.000861
3772.0659,0.001289
3773.9296,0.001228
3775.7932,0.001218
3777.6569,0.001087
3779.5206,0.000529
3781.3842,0.000508
3783.2479,0.000822
3785.1116,0.000958
3786.9752,0.001084
3788.8389,0.000820
3790.7026,0.000539
3792.5662,0.000596
3794.4299,0.000598
3796.2936,0.000432
3798.1573,0.000580
3800.0209,0.000642
3801.8846,0.000372
3803.7483,0.000549
3805.6119,0.000417
3807.4756,0.000050
3809.3393,0.000371
3811.2029,0.000683
3813.0666,0.000675
3814.9303,0.000505
3816.7939,0.000298
3818.6576,0.000441
3820.5213,0.000505
3822.3850,0.000422
3824.2486,0.000673
3826.1123,0.000664
3827.9760,0.000439
3829.8396,0.000218
3831.7033,0.000212
3833.5670,0.000462
3835.4306,0.000274
3837.2943,-0.000046
3839.1580,0.000174
3841.0216,0.000236
3842.8853,0.000547
3844.7490,0.000907
3846.6126,0.000978
3848.4763,0.000825
3850.3400,0.000412
3852.2037,-0.000078
3854.0673,0.000289
3855.9310,0.001196
3857.7947,0.000887
3859.6583,0.000640
3861.5220,0.000936
3863.3857,0.000873
3865.2493,0.000598
3867.1130,0.000720
3868.9767,0.000951
3870.8403,0.000764
3872.7040,0.000954
3874.5677,0.001127
3876.4314,0.000949
3878.2950,0.000839
3880.1587,0.000740
3882.0224,0.000927
3883.8860,0.001161
3885.7497,0.000716
3887.6134,0.000568
3889.4770,0.001167
3891.3407,0.001210
3893.2044,0.000742
3895.0680,0.000782
3896.9317,0.000964
3898.7954,0.001133
3900.6590,0.001111
3902.5227,0.001201
3904.3864,0.001350
3906.2501,0.001503
3908.1137,0.001880
3909.9774,0.002011
3911.8411,0.001711
3913.7047,0.001405
3915.5684,0.001296
3917.4321,0.001430
3919.2957,0.001453
3921.1594,0.001315
3923.0231,0.001340
3924.8867,0.001180
3926.7504,0.001010
3928.6141,0.001475
3930.4777,0.001766
3932.3414,0.001590
3934.2051,0.001805
3936.0688,0.002046
3937.9324,0.001944
3939.7961,0.001933
3941.6598,0.001814
3943.5234,0.001894
3945.3871,0.001793
3947.2508,0.001667
3949.1144,0.001664
3950.9781,0.001972
3952.8418,0.002187
3954.7054,0.002041
3956.5691,0.002055
3958.4328,0.002009
3960.2965,0.001769
3962.1601,0.001721
3964.0238,0.001982
3965.8875,0.002128
3967.7511,0.001995
3969.6148,0.001816
3971.4785,0.001461
3973.3421,0.001298
3975.2058,0.001614
3977.0695,0.002038
3978.9331,0.002126
3980.7968,0.002220
3982.6605,0.002486
3984.5241,0.002552
3986.3878,0.002159
3988.2515,0.001711
3990.1152,0.001546
3991.9788,0.001625
3993.8425,0.001568
3995.7062,0.001588
3997.5698,0.001826
3999.4335,0.002175
