Wavenumber,Intensity
650.4205,0.102788
652.2841,0.102502
654.1478,0.100621
656.0115,0.102017
657.8751,0.101760
659.7388,0.099929
661.6025,0.099533
663.4661,0.099795
665.3298,0.099710
667.1935,0.098268
669.0571,0.098658
670.9208,0.098164
672.7845,0.098209
674.6481,0.099896
676.5118,0.100185
678.3755,0.097201
680.2392,0.095394
682.1028,0.095185
683.9665,0.094382
685.8302,0.094307
687.6938,0.094102
689.5575,0.093516
691.4212,0.092829
693.2848,0.091125
695.1485,0.091450
697.0122,0.092054
698.8758,0.091208
700.7395,0.090693
702.6032,0.089444
704.4669,0.088526
706.3305,0.088116
708.1942,0.087050
710.0579,0.086083
711.9215,0.085409
713.7852,0.085115
715.6489,0.084417
717.5125,0.083120
719.3762,0.081757
721.2399,0.080998
723.1035,0.080408
724.9672,0.079471
726.8309,0.078979
728.6945,0.078569
730.5582,0.077792
732.4219,0.076953
734.2856,0.076356
736.1492,0.076096
738.0129,0.075825
739.8766,0.075515
741.7402,0.075283
743.6039,0.074952
745.4676,0.074402
747.3312,0.074232
749.1949,0.073856
751.0586,0.072742
752.9222,0.071765
754.7859,0.071340
756.6496,0.071080
758.5132,0.070696
760.3769,0.070543
762.2406,0.070055
764.1043,0.069637
765.9679,0.069899
767.8316,0.069720
769.6953,0.069022
771.5589,0.068335
773.4226,0.067390
775.2863,0.066694
777.1499,0.066591
779.0136,0.066345
780.8773,0.065507
782.7409,0.064287
784.6046,0.063554
786.4683,0.063387
788.3320,0.063086
790.1956,0.062628
792.0593,0.062001
793.9230,0.061383
795.7866,0.060836
797.6503,0.060479
799.5140,0.060470
801.3776,0.060613
803.2413,0.060666
805.1050,0.060301
806.9686,0.059977
808.8323,0.059928
810.6960,0.059807
812.5596,0.060162
814.4233,0.060516
816.2870,0.060218
818.1507,0.059606
820.0143,0.058955
821.8780,0.058194
823.7417,0.057335
825.6053,0.056306
827.4690,0.055181
829.3327,0.053972
831.1963,0.052901
833.0600,0.052074
834.9237,0.051423
836.7873,0.050849
838.6510,0.050042
840.5147,0.049172
842.3784,0.048768
844.2420,0.048473
846.1057,0.047905
847.9694,0.047639
849.8330,0.047574
851.6967,0.047346
853.5604,0.047281
855.4240,0.047328
857.2877,0.047578
859.1514,0.047830
861.0150,0.047835
862.8787,0.048009
864.7424,0.048600
866.6060,0.049418
868.4697,0.050388
870.3334,0.051182
872.1971,0.051020
874.0607,0.050057
875.9244,0.049449
877.7881,0.049117
879.6517,0.048610
881.5154,0.048028
883.3791,0.047703
885.2427,0.047440
887.1064,0.047051
888.9701,0.046760
890.8337,0.046841
892.6974,0.047203
894.5611,0.047418
896.4247,0.047179
898.2884,0.046700
900.1521,0.046391
902.0158,0.046192
903.8794,0.046033
905.7431,0.045972
907.6068,0.045836
909.4704,0.045842
911.3341,0.046174
913.1978,0.046500
915.0614,0.046790
916.9251,0.047178
918.7888,0.047320
920.6524,0.047344
922.5161,0.047436
924.3798,0.047595
926.2435,0.047653
928.1071,0.047576
929.9708,0.047589
931.8345,0.047748
933.6981,0.047915
935.5618,0.048139
937.4255,0.048488
939.2891,0.049158
941.1528,0.050083
943.0165,0.051092
944.8801,0.052033
946.7438,0.052628
948.6075,0.053023
950.4711,0.053385
952.3348,0.053590
954.1985,0.053900
956.0622,0.054648
957.9258,0.055920
959.7895,0.057586
961.6532,0.059578
963.5168,0.061688
965.3805,0.063508
967.2442,0.064784
969.1078,0.065432
970.9715,0.065575
972.8352,0.065583
974.6988,0.065763
976.5625,0.066206
978.4262,0.067061
980.2899,0.068159
982.1535,0.069311
984.0172,0.070576
985.8809,0.071885
987.7445,0.073168
989.6082,0.074249
991.4719,0.075406
993.3355,0.076709
995.1992,0.077907
997.0629,0.079055
998.9265,0.080128
1000.7902,0.080961
1002.6539,0.081889
1004.5175,0.083137
1006.3812,0.084709
1008.2449,0.086776
1010.1086,0.089244
1011.9722,0.092080
1013.8359,0.095162
1015.6996,0.098118
1017.5632,0.100810
1019.4269,0.103123
1021.2906,0.104819
1023.1542,0.106024
1025.0179,0.107076
1026.8816,0.108112
1028.7452,0.109142
1030.6089,0.109985
1032.4726,0.110595
1034.3362,0.110875
1036.1999,0.110799
1038.0636,0.110521
1039.9273,0.110056
1041.7909,0.109409
1043.6546,0.108810
1045.5183,0.108300
1047.3819,0.107900
1049.2456,0.107706
1051.1093,0.107697
1052.9729,0.107813
1054.8366,0.108066
1056.7003,0.108254
1058.5639,0.108414
1060.4276,0.108411
1062.2913,0.108334
1064.1550,0.108482
1066.0186,0.108736
1067.8823,0.108809
1069.7460,0.108721
1071.6096,0.108487
1073.4733,0.108022
1075.3370,0.107130
1077.2006,0.105648
1079.0643,0.103510
1080.9280,0.100953
1082.7916,0.098040
1084.6553,0.094909
1086.5190,0.091861
1088.3826,0.089093
1090.2463,0.086620
1092.1100,0.084407
1093.9737,0.082539
1095.8373,0.080980
1097.7010,0.079522
1099.5647,0.078124
1101.4283,0.076959
1103.2920,0.076128
1105.1557,0.075516
1107.0193,0.075001
1108.8830,0.074754
1110.7467,0.074602
1112.6103,0.074307
1114.4740,0.073895
1116.3377,0.073436
1118.2014,0.072863
1120.0650,0.072078
1121.9287,0.071150
1123.7924,0.070273
1125.6560,0.069506
1127.5197,0.068585
1129.3834,0.067592
1131.2470,0.066577
1133.1107,0.065483
1134.9744,0.064314
1136.8380,0.063226
1138.7017,0.062250
1140.5654,0.061413
1142.4290,0.060819
1144.2927,0.060581
1146.1564,0.060641
1148.0201,0.060843
1149.8837,0.061055
1151.7474,0.061167
1153.6111,0.061276
1155.4747,0.061286
1157.3384,0.061128
1159.2021,0.060904
1161.0657,0.060441
1162.9294,0.059825
1164.7931,0.059099
1166.6567,0.058108
1168.5204,0.056682
1170.3841,0.054875
1172.2477,0.052886
1174.1114,0.050771
1175.9751,0.048725
1177.8388,0.046998
1179.7024,0.045707
1181.5661,0.044912
1183.4298,0.044537
1185.2934,0.044563
1187.1571,0.044853
1189.0208,0.045340
1190.8844,0.046073
1192.7481,0.047002
1194.6118,0.047977
1196.4754,0.049096
1198.3391,0.050426
1200.2028,0.051794
1202.0665,0.053080
1203.9301,0.054281
1205.7938,0.055318
1207.6575,0.056159
1209.5211,0.056929
1211.3848,0.057630
1213.2485,0.058281
1215.1121,0.059012
1216.9758,0.059860
1218.8395,0.060853
1220.7031,0.061832
1222.5668,0.062761
1224.4305,0.063643
1226.2941,0.064444
1228.1578,0.065052
1230.0215,0.065577
1231.8852,0.065982
1233.7488,0.066272
1235.6125,0.066435
1237.4762,0.066427
1239.3398,0.066303
1241.2035,0.066074
1243.0672,0.065709
1244.9308,0.065202
1246.7945,0.064575
1248.6582,0.063932
1250.5218,0.063253
1252.3855,0.062564
1254.2492,0.061834
1256.1129,0.061083
1257.9765,0.060361
1259.8402,0.059795
1261.7039,0.059313
1263.5675,0.058889
1265.4312,0.058368
1267.2949,0.057826
1269.1585,0.057439
1271.0222,0.057184
1272.8859,0.056822
1274.7495,0.056475
1276.6132,0.056237
1278.4769,0.055933
1280.3405,0.055791
1282.2042,0.055711
1284.0679,0.055502
1285.9316,0.055306
1287.7952,0.055385
1289.6589,0.055506
1291.5226,0.055619
1293.3862,0.055829
1295.2499,0.056228
1297.1136,0.056748
1298.9772,0.057225
1300.8409,0.057726
1302.7046,0.058270
1304.5682,0.058711
1306.4319,0.059140
1308.2956,0.059605
1310.1592,0.059800
1312.0229,0.060081
1313.8866,0.060300
1315.7503,0.060161
1317.6139,0.060036
1319.4776,0.059870
1321.3413,0.059440
1323.2049,0.058955
1325.0686,0.058567
1326.9323,0.058292
1328.7959,0.057916
1330.6596,0.057551
1332.5233,0.057301
1334.3869,0.057069
1336.2506,0.057167
1338.1143,0.057805
1339.9780,0.058419
1341.8416,0.058216
1343.7053,0.057794
1345.5690,0.057786
1347.4326,0.057839
1349.2963,0.057902
1351.1600,0.057961
1353.0236,0.057994
1354.8873,0.058198
1356.7510,0.058420
1358.6146,0.058621
1360.4783,0.059585
1362.3420,0.061520
1364.2056,0.062876
1366.0693,0.063450
1367.9330,0.064495
1369.7967,0.065586
1371.6603,0.066622
1373.5240,0.068512
1375.3877,0.069842
1377.2513,0.069915
1379.1150,0.070134
1380.9787,0.070102
1382.8423,0.069818
1384.7060,0.069544
1386.5697,0.070111
1388.4333,0.070421
1390.2970,0.069424
1392.1607,0.068955
1394.0244,0.069814
1395.8880,0.070424
1397.7517,0.070281
1399.6154,0.070306
1401.4790,0.069415
1403.3427,0.069023
1405.2064,0.069236
1407.0700,0.068417
1408.9337,0.067481
1410.7974,0.067012
1412.6610,0.066236
1414.5247,0.065131
1416.3884,0.064584
1418.2520,0.065825
1420.1157,0.066573
1421.9794,0.065267
1423.8431,0.065048
1425.7067,0.064851
1427.5704,0.064780
1429.4341,0.065796
1431.2977,0.066369
1433.1614,0.066505
1435.0251,0.068145
1436.8887,0.071441
1438.7524,0.071456
1440.6161,0.070458
1442.4797,0.070445
1444.3434,0.070496
1446.2071,0.070956
1448.0707,0.071556
1449.9344,0.070687
1451.7981,0.068950
1453.6618,0.067503
1455.5254,0.067936
1457.3891,0.070083
1459.2528,0.067143
1461.1164,0.063926
1462.9801,0.062803
1464.8438,0.062907
1466.7074,0.061177
1468.5711,0.058675
1470.4348,0.057447
1472.2984,0.058318
1474.1621,0.057893
1476.0258,0.056551
1477.8895,0.055445
1479.7531,0.054863
1481.6168,0.055115
1483.4805,0.055158
1485.3441,0.055639
1487.2078,0.057870
1489.0715,0.061637
1490.9351,0.064158
1492.7988,0.063818
1494.6625,0.065176
1496.5261,0.070017
1498.3898,0.073452
1500.2535,0.074182
1502.1171,0.073928
1503.9808,0.074782
1505.8445,0.081873
1507.7082,0.090593
1509.5718,0.089808
1511.4355,0.089684
1513.2992,0.090578
1515.1628,0.091779
1517.0265,0.093891
1518.8902,0.094632
1520.7538,0.096865
1522.6175,0.099250
1524.4812,0.098750
1526.3448,0.099734
1528.2085,0.099944
1530.0722,0.099344
1531.9359,0.100064
1533.7995,0.101676
1535.6632,0.099714
1537.5269,0.098278
1539.3905,0.101326
1541.2542,0.103709
1543.1179,0.101966
1544.9815,0.100312
1546.8452,0.097717
1548.7089,0.095579
1550.5725,0.093809
1552.4362,0.091288
1554.2999,0.088833
1556.1635,0.086697
1558.0272,0.087949
1559.8909,0.088431
1561.7546,0.083307
1563.6182,0.080112
1565.4819,0.078158
1567.3456,0.076605
1569.2092,0.076030
1571.0729,0.074202
1572.9366,0.071597
1574.8002,0.071271
1576.6639,0.072046
1578.5276,0.070435
1580.3912,0.069166
1582.2549,0.068868
1584.1186,0.068988
1585.9822,0.069351
1587.8459,0.069864
1589.7096,0.070847
1591.5733,0.072144
1593.4369,0.074033
1595.3006,0.076058
1597.1643,0.077702
1599.0279,0.079572
1600.8916,0.082295
1602.7553,0.085382
1604.6189,0.088200
1606.4826,0.090991
1608.3463,0.094321
1610.2099,0.097076
1612.0736,0.098976
1613.9373,0.101094
1615.8010,0.105564
1617.6646,0.110037
1619.5283,0.110306
1621.3920,0.111206
1623.2556,0.114289
1625.1193,0.115760
1626.9830,0.116382
1628.8466,0.116944
1630.7103,0.116207
1632.5740,0.115255
1634.4376,0.116202
1636.3013,0.118067
1638.1650,0.116154
1640.0286,0.113257
1641.8923,0.110596
1643.7560,0.108290
1645.6197,0.107705
1647.4833,0.106778
1649.3470,0.103427
1651.2107,0.101102
1653.0743,0.102144
1654.9380,0.098710
1656.8017,0.093651
1658.6653,0.089988
1660.5290,0.087340
1662.3927,0.084732
1664.2563,0.081332
1666.1200,0.077802
1667.9837,0.074869
1669.8474,0.072005
1671.7110,0.068625
1673.5747,0.065357
1675.4384,0.062373
1677.3020,0.058786
1679.1657,0.055404
1681.0294,0.052139
1682.8930,0.049423
1684.7567,0.046214
1686.6204,0.042532
1688.4840,0.039133
1690.3477,0.035780
1692.2114,0.032303
1694.0750,0.029029
1695.9387,0.025534
1697.8024,0.022316
1699.6661,0.019307
1701.5297,0.016627
1703.3934,0.014615
1705.2571,0.012614
1707.1207,0.010842
1708.9844,0.009636
1710.8481,0.008326
1712.7117,0.007202
1714.5754,0.006270
1716.4391,0.005569
1718.3027,0.004920
1720.1664,0.004408
1722.0301,0.003854
1723.8937,0.003324
1725.7574,0.002781
1727.6211,0.002420
1729.4848,0.002213
1731.3484,0.002110
1733.2121,0.001588
1735.0758,0.001581
1736.9394,0.001546
1738.8031,0.001542
1740.6668,0.001393
1742.5304,0.001161
1744.3941,0.000827
1746.2578,0.000551
1748.1214,0.000543
1749.9851,0.000180
1751.8488,-0.000478
1753.7125,-0.000848
1755.5761,-0.001247
1757.4398,-0.001530
1759.3035,-0.001861
1761.1671,-0.002011
1763.0308,-0.002029
1764.8945,-0.002163
1766.7581,-0.002435
1768.6218,-0.002586
1770.4855,-0.002765
1772.3491,-0.002783
1774.2128,-0.002811
1776.0765,-0.002830
1777.9401,-0.002856
1779.8038,-0.002949
1781.6675,-0.002864
1783.5312,-0.002840
1785.3948,-0.002925
1787.2585,-0.002895
1789.1222,-0.002927
1790.9858,-0.003122
1792.8495,-0.003090
1794.7132,-0.003134
1796.5768,-0.003129
1798.4405,-0.003173
1800.3042,-0.003346
1802.1678,-0.003190
1804.0315,-0.003162
1805.8952,-0.003306
1807.7589,-0.003399
1809.6225,-0.003455
1811.4862,-0.003522
1813.3499,-0.003643
1815.2135,-0.003802
1817.0772,-0.003749
1818.9409,-0.003322
1820.8045,-0.002985
1822.6682,-0.003158
1824.5319,-0.003462
1826.3955,-0.003252
1828.2592,-0.003080
1830.1229,-0.003333
1831.9865,-0.003710
1833.8502,-0.003683
1835.7139,-0.003420
1837.5776,-0.003135
1839.4412,-0.002838
1841.3049,-0.003000
1843.1686,-0.003375
1845.0322,-0.003608
1846.8959,-0.003240
1848.7596,-0.003029
1850.6232,-0.003102
1852.4869,-0.003120
1854.3506,-0.002860
1856.2142,-0.002648
1858.0779,-0.002870
1859.9416,-0.003248
1861.8052,-0.003240
1863.6689,-0.003138
1865.5326,-0.003043
1867.3963,-0.002942
1869.2599,-0.002915
1871.1236,-0.002956
1872.9873,-0.002923
1874.8509,-0.002982
1876.7146,-0.003065
1878.5783,-0.003007
1880.4419,-0.003048
1882.3056,-0.003070
1884.1693,-0.002624
1886.0329,-0.002652
1887.8966,-0.002784
1889.7603,-0.002902
1891.6240,-0.002929
1893.4876,-0.003046
1895.3513,-0.003011
1897.2150,-0.002727
1899.0786,-0.002800
1900.9423,-0.002801
1902.8060,-0.002409
1904.6696,-0.002516
1906.5333,-0.002539
1908.3970,-0.002278
1910.2606,-0.002384
1912.1243,-0.002767
1913.9880,-0.002718
1915.8516,-0.002681
1917.7153,-0.003176
1919.5790,-0.003291
1921.4427,-0.003141
1923.3063,-0.003339
1925.1700,-0.003141
1927.0337,-0.002654
1928.8973,-0.002459
1930.7610,-0.002062
1932.6247,-0.001591
1934.4883,-0.001544
1936.3520,-0.001758
1938.2157,-0.002178
1940.0793,-0.002026
1941.9430,-0.001504
1943.8067,-0.000956
1945.6704,-0.001099
1947.5340,-0.001197
1949.3977,-0.000989
1951.2614,-0.001341
1953.1250,-0.001987
1954.9887,-0.002291
1956.8524,-0.002442
1958.7160,-0.001661
1960.5797,-0.001253
1962.4434,-0.000837
1964.3070,-0.000446
1966.1707,-0.001094
1968.0344,-0.000399
1969.8980,0.001295
1971.7617,0.001570
1973.6254,0.000917
1975.4891,-0.000151
1977.3527,0.000965
1979.2164,0.002717
1981.0801,0.002399
1982.9437,0.000601
1984.8074,-0.000138
1986.6711,-0.000270
1988.5347,-0.000478
1990.3984,0.000062
1992.2621,0.000793
1994.1257,0.001015
1995.9894,0.000136
1997.8531,-0.000613
1999.7167,0.000040
2001.5804,0.000418
2003.4441,0.000105
2005.3078,-0.001045
2007.1714,-0.001350
2009.0351,0.000483
2010.8988,0.001527
2012.7624,0.000744
2014.6261,-0.000292
2016.4898,-0.000375
2018.3534,0.000813
2020.2171,0.001217
2022.0808,0.001314
2023.9444,0.001010
2025.8081,0.000289
2027.6718,0.001182
2029.5355,0.002295
2031.3991,0.002104
2033.2628,0.002016
2035.1265,0.002604
2036.9901,0.003356
2038.8538,0.003823
2040.7175,0.003534
2042.5811,0.003427
2044.4448,0.004289
2046.3085,0.004532
2048.1721,0.004312
2050.0358,0.004183
2051.8995,0.002896
2053.7631,0.002694
2055.6268,0.003761
2057.4905,0.002889
2059.3542,0.002045
2061.2178,0.002781
2063.0815,0.003437
2064.9452,0.002926
2066.8088,0.002788
2068.6725,0.002930
2070.5362,0.002406
2072.3998,0.001728
2074.2635,0.001649
2076.1272,0.002249
2077.9908,0.002371
2079.8545,0.001698
2081.7182,0.001439
2083.5819,0.002052
2085.4455,0.002032
2087.3092,0.001132
2089.1729,0.000669
2091.0365,0.000740
2092.9002,0.000644
2094.7639,0.000637
2096.6275,0.000923
2098.4912,0.001209
2100.3549,0.001052
2102.2185,0.000847
2104.0822,0.000635
2105.9459,0.000577
2107.8095,0.001138
2109.6732,0.001295
2111.5369,0.001256
2113.4006,0.001068
2115.2642,0.000599
2117.1279,0.000397
2118.9916,0.000179
2120.8552,-0.000028
2122.7189,-0.000743
2124.5826,-0.000710
2126.4462,0.000495
2128.3099,0.000369
2130.1736,-0.000505
2132.0372,-0.000827
2133.9009,-0.000799
2135.7646,-0.000070
2137.6282,0.000403
2139.4919,-0.000034
2141.3556,0.000050
2143.2193,0.000626
2145.0829,0.001296
2146.9466,0.001953
2148.8103,0.002315
2150.6739,0.001575
2152.5376,-0.000311
2154.4013,-0.001027
2156.2649,0.000097
2158.1286,0.002677
2159.9923,0.005855
2161.8559,0.005589
2163.7196,0.004059
2165.5833,0.004382
2167.4470,0.004579
2169.3106,0.003432
2171.1743,0.003321
2173.0380,0.003792
2174.9016,0.002009
2176.7653,0.001233
2178.6290,0.002741
2180.4926,0.003284
2182.3563,0.003265
2184.2200,0.003662
2186.0836,0.002960
2187.9473,0.002011
2189.8110,0.002543
2191.6746,0.003205
2193.5383,0.002860
2195.4020,0.002250
2197.2657,0.002299
2199.1293,0.002624
2200.9930,0.002566
2202.8567,0.002122
2204.7203,0.001742
2206.5840,0.002609
2208.4477,0.003620
2210.3113,0.003190
2212.1750,0.002604
2214.0387,0.002941
2215.9023,0.003016
2217.7660,0.002023
2219.6297,0.001434
2221.4934,0.001815
2223.3570,0.001965
2225.2207,0.001752
2227.0844,0.002264
2228.9480,0.002426
2230.8117,0.002056
2232.6754,0.002499
2234.5390,0.002612
2236.4027,0.002174
2238.2664,0.002113
2240.1300,0.002169
2241.9937,0.002017
2243.8574,0.001982
2245.7210,0.002143
2247.5847,0.002375
2249.4484,0.002382
2251.3121,0.001829
2253.1757,0.001193
2255.0394,0.001141
2256.9031,0.001733
2258.7667,0.002307
2260.6304,0.002253
2262.4941,0.001867
2264.3577,0.001826
2266.2214,0.002346
2268.0851,0.002385
2269.9487,0.001910
2271.8124,0.002033
2273.6761,0.002320
2275.5397,0.002369
2277.4034,0.002250
2279.2671,0.002097
2281.1308,0.002249
2282.9944,0.002317
2284.8581,0.002094
2286.7218,0.002169
2288.5854,0.002250
2290.4491,0.001827
2292.3128,0.001356
2294.1764,0.001255
2296.0401,0.001333
2297.9038,0.001498
2299.7674,0.001489
2301.6311,0.001029
2303.4948,0.000977
2305.3585,0.001216
2307.2221,0.001071
2309.0858,0.001031
2310.9495,0.001211
2312.8131,0.001546
2314.6768,0.001750
2316.5405,0.001508
2318.4041,0.001522
2320.2678,0.001745
2322.1315,0.001892
2323.9951,0.001807
2325.8588,0.001256
2327.7225,0.000819
2329.5861,0.000478
2331.4498,-0.000078
2333.3135,-0.000108
2335.1772,0.000428
2337.0408,0.000637
2338.9045,0.000859
2340.7682,0.001386
2342.6318,0.001521
2344.4955,0.001080
2346.3592,0.000343
2348.2228,-0.000272
2350.0865,-0.000705
2351.9502,-0.000678
2353.8138,0.000117
2355.6775,0.000654
2357.5412,0.000955
2359.4049,0.001077
2361.2685,0.000956
2363.1322,0.000895
2364.9959,0.000740
2366.8595,0.000900
2368.7232,0.000834
2370.5869,0.000910
2372.4505,0.001458
2374.3142,0.001373
2376.1779,0.000997
2378.0415,0.000868
2379.9052,0.000641
2381.7689,0.000357
2383.6325,0.000291
2385.4962,0.000237
2387.3599,0.000060
2389.2236,0.000096
2391.0872,0.000204
2392.9509,0.000329
2394.8146,0.000565
2396.6782,0.000704
2398.5419,0.000549
2400.4056,0.000360
2402.2692,0.000610
2404.1329,0.000853
2405.9966,0.000733
2407.8602,0.000759
2409.7239,0.000826
2411.5876,0.000873
2413.4512,0.001143
2415.3149,0.001106
2417.1786,0.001091
2419.0423,0.001374
2420.9059,0.001165
2422.7696,0.001123
2424.6333,0.001452
2426.4969,0.001419
2428.3606,0.001379
2430.2243,0.001410
2432.0879,0.001434
2433.9516,0.001557
2435.8153,0.001727
2437.6789,0.001963
2439.5426,0.001936
2441.4063,0.001825
2443.2700,0.001704
2445.1336,0.001858
2446.9973,0.002128
2448.8610,0.002165
2450.7246,0.002018
2452.5883,0.001906
2454.4520,0.002357
2456.3156,0.002565
2458.1793,0.002028
2460.0430,0.001824
2461.9066,0.002066
2463.7703,0.002048
2465.6340,0.002116
2467.4976,0.002423
2469.3613,0.002413
2471.2250,0.002200
2473.0887,0.002315
2474.9523,0.002546
2476.8160,0.002676
2478.6797,0.002681
2480.5433,0.002514
2482.4070,0.002176
2484.2707,0.002117
2486.1343,0.002523
2487.9980,0.002721
2489.8617,0.002801
2491.7253,0.002839
2493.5890,0.002694
2495.4527,0.003005
2497.3164,0.003194
2499.1800,0.002922
2501.0437,0.002715
2502.9074,0.002912
2504.7710,0.003018
2506.6347,0.002872
2508.4984,0.003035
2510.3620,0.003294
2512.2257,0.003160
2514.0894,0.003038
2515.9530,0.003277
2517.8167,0.003513
2519.6804,0.003375
2521.5440,0.003291
2523.4077,0.003373
2525.2714,0.003565
2527.1351,0.003740
2528.9987,0.003539
2530.8624,0.003231
2532.7261,0.003599
2534.5897,0.003775
2536.4534,0.003644
2538.3171,0.003822
2540.1807,0.003915
2542.0444,0.003760
2543.9081,0.003497
2545.7717,0.003371
2547.6354,0.003825
2549.4991,0.004393
2551.3627,0.004478
2553.2264,0.004366
2555.0901,0.004517
2556.9538,0.004471
2558.8174,0.004474
2560.6811,0.004432
2562.5448,0.003923
2564.4084,0.003858
2566.2721,0.004304
2568.1358,0.004584
2569.9994,0.004677
2571.8631,0.004959
2573.7268,0.004973
2575.5904,0.004933
2577.4541,0.004986
2579.3178,0.004757
2581.1815,0.004864
2583.0451,0.005160
2584.9088,0.004980
2586.7725,0.004891
2588.6361,0.005240
2590.4998,0.005599
2592.3635,0.005601
2594.2271,0.005429
2596.0908,0.005351
2597.9545,0.005648
2599.8181,0.005859
2601.6818,0.005885
2603.5455,0.005959
2605.4091,0.006005
2607.2728,0.005932
2609.1365,0.006078
2611.0002,0.006357
2612.8638,0.006479
2614.7275,0.006318
2616.5912,0.006349
2618.4548,0.006485
2620.3185,0.006524
2622.1822,0.006718
2624.0458,0.006835
2625.9095,0.006911
2627.7732,0.006848
2629.6368,0.006913
2631.5005,0.007401
2633.3642,0.007732
2635.2279,0.007600
2637.0915,0.007453
2638.9552,0.007490
2640.8189,0.007533
2642.6825,0.007719
2644.5462,0.007910
2646.4099,0.007937
2648.2735,0.007799
2650.1372,0.007643
2652.0009,0.007694
2653.8645,0.007970
2655.7282,0.008105
2657.5919,0.007935
2659.4555,0.007967
2661.3192,0.008085
2663.1829,0.007923
2665.0466,0.007678
2666.9102,0.007626
2668.7739,0.007822
2670.6376,0.008080
2672.5012,0.008313
2674.3649,0.008320
2676.2286,0.008167
2678.0922,0.008204
2679.9559,0.008263
2681.8196,0.008303
2683.6832,0.008330
2685.5469,0.008392
2687.4106,0.008650
2689.2742,0.008685
2691.1379,0.008742
2693.0016,0.008931
2694.8653,0.009069
2696.7289,0.009139
2698.5926,0.009210
2700.4563,0.009379
2702.3199,0.009561
2704.1836,0.009668
2706.0473,0.009722
2707.9109,0.009698
2709.7746,0.009688
2711.6383,0.010005
2713.5019,0.010271
2715.3656,0.010440
2717.2293,0.010497
2719.0930,0.010554
2720.9566,0.010694
2722.8203,0.010853
2724.6840,0.010784
2726.5476,0.010730
2728.4113,0.011027
2730.2750,0.011307
2732.1386,0.011469
2734.0023,0.011598
2735.8660,0.011756
2737.7296,0.011897
2739.5933,0.012010
2741.4570,0.012216
2743.3206,0.012395
2745.1843,0.012465
2747.0480,0.012441
2748.9117,0.012424
2750.7753,0.012542
2752.6390,0.012740
2754.5027,0.012988
2756.3663,0.013326
2758.2300,0.013525
2760.0937,0.013571
2761.9573,0.013708
2763.8210,0.013931
2765.6847,0.014002
2767.5483,0.013969
2769.4120,0.014120
2771.2757,0.014421
2773.1394,0.014618
2775.0030,0.014631
2776.8667,0.014732
2778.7304,0.015068
2780.5940,0.015378
2782.4577,0.015442
2784.3214,0.015585
2786.1850,0.015825
2788.0487,0.016030
2789.9124,0.016264
2791.7760,0.016444
2793.6397,0.016338
2795.5034,0.016295
2797.3670,0.016544
2799.2307,0.016890
2801.0944,0.016957
2802.9581,0.017119
2804.8217,0.017486
2806.6854,0.017835
2808.5491,0.018171
2810.4127,0.018332
2812.2764,0.018449
2814.1401,0.018663
2816.0037,0.018669
2817.8674,0.018833
2819.7311,0.019305
2821.5947,0.019691
2823.4584,0.019869
2825.3221,0.020131
2827.1857,0.020415
2829.0494,0.020686
2830.9131,0.020904
2832.7768,0.021110
2834.6404,0.021549
2836.5041,0.021988
2838.3678,0.022250
2840.2314,0.022635
2842.0951,0.023252
2843.9588,0.023891
2845.8224,0.024683
2847.6861,0.025475
2849.5498,0.026048
2851.4134,0.026453
2853.2771,0.026641
2855.1408,0.026769
2857.0045,0.026997
2858.8681,0.027178
2860.7318,0.027225
2862.5955,0.027367
2864.4591,0.027686
2866.3228,0.028251
2868.1865,0.028891
2870.0501,0.029314
2871.9138,0.029532
2873.7775,0.029598
2875.6411,0.029606
2877.5048,0.029701
2879.3685,0.029844
2881.2321,0.029962
2883.0958,0.030033
2884.9595,0.030155
2886.8232,0.030328
2888.6868,0.030515
2890.5505,0.030506
2892.4142,0.030564
2894.2778,0.030553
2896.1415,0.030775
2898.0052,0.031166
2899.8688,0.031668
2901.7325,0.032013
2903.5962,0.032067
2905.4598,0.032270
2907.3235,0.032652
2909.1872,0.033062
2911.0509,0.033938
2912.9145,0.034643
2914.7782,0.035110
2916.6419,0.035917
2918.5055,0.036534
2920.3692,0.036766
2922.2329,0.036972
2924.0965,0.037191
2925.9602,0.037199
2927.8239,0.037055
2929.6875,0.037153
2931.5512,0.036989
2933.4149,0.036789
2935.2785,0.036562
2937.1422,0.036181
2939.0059,0.035999
2940.8696,0.035754
2942.7332,0.035458
2944.5969,0.035267
2946.4606,0.035075
2948.3242,0.034979
2950.1879,0.034842
2952.0516,0.034833
2953.9152,0.034875
2955.7789,0.034953
2957.6426,0.034647
2959.5062,0.034512
2961.3699,0.034357
2963.2336,0.034301
2965.0972,0.034234
2966.9609,0.033860
2968.8246,0.033292
2970.6883,0.032858
2972.5519,0.032531
2974.4156,0.032312
2976.2793,0.032135
2978.1429,0.031834
2980.0066,0.031232
2981.8703,0.030718
2983.7339,0.030491
2985.5976,0.030410
2987.4613,0.030110
2989.3249,0.030000
2991.1886,0.029753
2993.0523,0.029452
2994.9160,0.029599
2996.7796,0.029552
2998.6433,0.029174
3000.5070,0.029119
3002.3706,0.029352
3004.2343,0.029607
3006.0980,0.029567
3007.9616,0.029823
3009.8253,0.030315
3011.6890,0.030934
3013.5526,0.031217
3015.4163,0.031117
3017.2800,0.031115
3019.1436,0.031550
3021.0073,0.031829
3022.8710,0.032109
3024.7347,0.032605
3026.5983,0.033011
3028.4620,0.033451
3030.3257,0.033953
3032.1893,0.034333
3034.0530,0.034575
3035.9167,0.034652
3037.7803,0.035021
3039.6440,0.035559
3041.5077,0.035917
3043.3713,0.036167
3045.2350,0.036625
3047.0987,0.037162
3048.9624,0.037615
3050.8260,0.037883
3052.6897,0.038181
3054.5534,0.038490
3056.4170,0.038938
3058.2807,0.039069
3060.1444,0.039084
3062.0080,0.039365
3063.8717,0.039942
3065.7354,0.040368
3067.5990,0.040492
3069.4627,0.040263
3071.3264,0.040372
3073.1900,0.040827
3075.0537,0.041270
3076.9174,0.041502
3078.7811,0.041611
3080.6447,0.041533
3082.5084,0.041398
3084.3721,0.041557
3086.2357,0.041807
3088.0994,0.041676
3089.9631,0.041476
3091.8267,0.041647
3093.6904,0.041876
3095.5541,0.041850
3097.4177,0.041797
3099.2814,0.041782
3101.1451,0.041957
3103.0087,0.042201
3104.8724,0.042819
3106.7361,0.043101
3108.5998,0.042920
3110.4634,0.042714
3112.3271,0.042865
3114.1908,0.043092
3116.0544,0.043471
3117.9181,0.043652
3119.7818,0.044012
3121.6454,0.044519
3123.5091,0.044863
3125.3728,0.044951
3127.2364,0.045372
3129.1001,0.045599
3130.9638,0.046010
3132.8275,0.046393
3134.6911,0.046590
3136.5548,0.046957
3138.4185,0.047433
3140.2821,0.047795
3142.1458,0.048319
3144.0095,0.048772
3145.8731,0.049199
3147.7368,0.049677
3149.6005,0.050286
3151.4641,0.050701
3153.3278,0.051169
3155.1915,0.051475
3157.0551,0.051876
3158.9188,0.052583
3160.7825,0.053136
3162.6462,0.053193
3164.5098,0.053745
3166.3735,0.054152
3168.2372,0.054634
3170.1008,0.055346
3171.9645,0.055813
3173.8282,0.055878
3175.6918,0.056346
3177.5555,0.056878
3179.4192,0.057408
3181.2828,0.057741
3183.1465,0.058055
3185.0102,0.058382
3186.8739,0.058680
3188.7375,0.059150
3190.6012,0.059825
3192.4649,0.059887
3194.3285,0.060250
3196.1922,0.060547
3198.0559,0.060872
3199.9195,0.061132
3201.7832,0.061138
3203.6469,0.061416
3205.5105,0.061868
3207.3742,0.061808
3209.2379,0.062155
3211.1015,0.062652
3212.9652,0.062928
3214.8289,0.062982
3216.6926,0.063497
3218.5562,0.063762
3220.4199,0.063309
3222.2836,0.062710
3224.1472,0.063184
3226.0109,0.063828
3227.8746,0.064528
3229.7382,0.064988
3231.6019,0.065285
3233.4656,0.065445
3235.3292,0.065443
3237.1929,0.065472
3239.0566,0.065397
3240.9202,0.065307
3242.7839,0.065929
3244.6476,0.066196
3246.5113,0.066582
3248.3749,0.067087
3250.2386,0.067194
3252.1023,0.067161
3253.9659,0.067295
3255.8296,0.067121
3257.6933,0.067076
3259.5569,0.067342
3261.4206,0.067895
3263.2843,0.068290
3265.1479,0.068543
3267.0116,0.068333
3268.8753,0.068315
3270.7390,0.068197
3272.6026,0.068402
3274.4663,0.068263
3276.3300,0.067794
3278.1936,0.067832
3280.0573,0.068287
3281.9210,0.067845
3283.7846,0.067257
3285.6483,0.067260
3287.5120,0.067624
3289.3756,0.067380
3291.2393,0.066951
3293.1030,0.066518
3294.9666,0.066287
3296.8303,0.065877
3298.6940,0.065378
3300.5577,0.065197
3302.4213,0.065250
3304.2850,0.065181
3306.1487,0.065036
3308.0123,0.064645
3309.8760,0.064424
3311.7397,0.063931
3313.6033,0.063546
3315.4670,0.063486
3317.3307,0.063658
3319.1943,0.063270
3321.0580,0.062557
3322.9217,0.062128
3324.7854,0.062214
3326.6490,0.061787
3328.5127,0.061179
3330.3764,0.061036
3332.2400,0.061301
3334.1037,0.061392
3335.9674,0.060969
3337.8310,0.060676
3339.6947,0.060900
3341.5584,0.060637
3343.4220,0.060347
3345.2857,0.059752
3347.1494,0.059436
3349.0130,0.059147
3350.8767,0.058931
3352.7404,0.059186
3354.6041,0.059111
3356.4677,0.058273
3358.3314,0.057981
3360.1951,0.057618
3362.0587,0.057500
3363.9224,0.057478
3365.7861,0.057372
3367.6497,0.057273
3369.5134,0.056745
3371.3771,0.056289
3373.2407,0.056544
3375.1044,0.056439
3376.9681,0.056067
3378.8317,0.055618
3380.6954,0.055396
3382.5591,0.055070
3384.4228,0.055159
3386.2864,0.054994
3388.1501,0.054539
3390.0138,0.054481
3391.8774,0.054386
3393.7411,0.053499
3395.6048,0.053151
3397.4684,0.052841
3399.3321,0.052295
3401.1958,0.052499
3403.0594,0.052504
3404.9231,0.051683
3406.7868,0.051556
3408.6505,0.051410
3410.5141,0.050834
3412.3778,0.050745
3414.2415,0.050622
3416.1051,0.050186
3417.9688,0.050235
3419.8325,0.050118
3421.6961,0.049391
3423.5598,0.048896
3425.4235,0.049041
3427.2871,0.048366
3429.1508,0.047800
3431.0145,0.047652
3432.8781,0.047314
3434.7418,0.046593
3436.6055,0.046231
3438.4692,0.046554
3440.3328,0.046680
3442.1965,0.045700
3444.0602,0.045249
3445.9238,0.045311
3447.7875,0.045286
3449.6512,0.044976
3451.5148,0.044340
3453.3785,0.043410
3455.2422,0.043056
3457.1058,0.042545
3458.9695,0.042176
3460.8332,0.042588
3462.6969,0.042173
3464.5605,0.041257
3466.4242,0.040578
3468.2879,0.040167
3470.1515,0.040210
3472.0152,0.039751
3473.8789,0.038842
3475.7425,0.038034
3477.6062,0.037770
3479.4699,0.037856
3481.3335,0.038060
3483.1972,0.037480
3485.0609,0.036256
3486.9245,0.035335
3488.7882,0.035321
3490.6519,0.034910
3492.5156,0.034333
3494.3792,0.033988
3496.2429,0.033359
3498.1066,0.032809
3499.9702,0.032856
3501.8339,0.032168
3503.6976,0.031296
3505.5612,0.031082
3507.4249,0.030876
3509.2886,0.030729
3511.1522,0.029920
3513.0159,0.028909
3514.8796,0.028394
3516.7432,0.027988
3518.6069,0.027979
3520.4706,0.027609
3522.3343,0.026759
3524.1979,0.026153
3526.0616,0.025979
3527.9253,0.025869
3529.7889,0.025438
3531.6526,0.024856
3533.5163,0.024403
3535.3799,0.023643
3537.2436,0.023465
3539.1073,0.023106
3540.9709,0.021583
3542.8346,0.020927
3544.6983,0.021145
3546.5620,0.020823
3548.4256,0.020305
3550.2893,0.020076
3552.1530,0.019602
3554.0166,0.018501
3555.8803,0.018284
3557.7440,0.018209
3559.6076,0.017216
3561.4713,0.016549
3563.3350,0.016838
3565.1986,0.016351
3567.0623,0.014749
3568.9260,0.013630
3570.7896,0.013643
3572.6533,0.013766
3574.5170,0.013628
3576.3807,0.013415
3578.2443,0.012673
3580.1080,0.011715
3581.9717,0.011351
3583.8353,0.010544
3585.6990,0.009672
3587.5627,0.009816
3589.4263,0.009977
3591.2900,0.009041
3593.1537,0.007895
3595.0173,0.007343
3596.8810,0.007014
3598.7447,0.006705
3600.6084,0.006318
3602.4720,0.005812
3604.3357,0.005237
3606.1994,0.004711
3608.0630,0.004578
3609.9267,0.004318
3611.7904,0.003080
3613.6540,0.002309
3615.5177,0.002825
3617.3814,0.003165
3619.2450,0.002677
3621.1087,0.001916
3622.9724,0.001383
3624.8360,0.000871
3626.6997,0.000325
3628.5634,-0.000661
3630.4271,-0.001466
3632.2907,-0.001212
3634.1544,-0.001328
3636.0181,-0.001661
3637.8817,-0.001852
3639.7454,-0.002355
3641.6091,-0.002934
3643.4727,-0.003238
3645.3364,-0.003544
3647.2001,-0.004048
3649.0637,-0.004650
3650.9274,-0.005142
3652.7911,-0.004969
3654.6547,-0.005155
3656.5184,-0.006133
3658.3821,-0.006369
3660.2458,-0.006162
3662.1094,-0.006357
3663.9731,-0.006835
3665.8368,-0.007219
3667.7004,-0.007312
3669.5641,-0.007473
3671.4278,-0.007233
3673.2914,-0.007067
3675.1551,-0.007969
3677.0188,-0.008633
3678.8824,-0.008346
3680.7461,-0.008462
3682.6098,-0.008942
3684.4735,-0.009116
3686.3371,-0.009267
3688.2008,-0.009836
3690.0645,-0.009755
3691.9281,-0.009150
3693.7918,-0.009018
3695.6555,-0.008946
3697.5191,-0.009169
3699.3828,-0.009475
3701.2465,-0.009565
3703.1101,-0.009361
3704.9738,-0.008933
3706.8375,-0.009209
3708.7011,-0.009913
3710.5648,-0.010120
3712.4285,-0.009760
3714.2922,-0.009503
3716.1558,-0.009669
3718.0195,-0.009665
3719.8832,-0.009470
3721.7468,-0.009571
3723.6105,-0.009948
3725.4742,-0.010124
3727.3378,-0.009537
3729.2015,-0.009161
3731.0652,-0.009940
3732.9288,-0.010663
3734.7925,-0.010636
3736.6562,-0.010159
3738.5199,-0.009470
3740.3835,-0.009712
3742.2472,-0.010315
3744.1109,-0.010848
3745.9745,-0.010832
3747.8382,-0.009957
3749.7019,-0.009910
3751.5655,-0.010245
3753.4292,-0.009716
3755.2929,-0.009172
3757.1565,-0.009568
3759.0202,-0.010081
3760.8839,-0.009995
3762.7475,-0.009809
3764.6112,-0.010040
3766.4749,-0.010208
3768.3386,-0.009866
3770.2022,-0.009927
3772.0659,-0.009933
3773.9296,-0.009799
3775.7932,-0.009809
3777.6569,-0.009697
3779.5206,-0.009754
3781.3842,-0.009544
3783.2479,-0.009369
3785.1116,-0.009800
3786.9752,-0.009989
3788.8389,-0.009876
3790.7026,-0.009734
3792.5662,-0.009690
3794.4299,-0.009870
3796.2936,-0.009847
3798.1573,-0.009644
3800.0209,-0.009917
3801.8846,-0.010618
3803.7483,-0.010307
3805.6119,-0.009874
3807.4756,-0.010428
3809.3393,-0.010115
3811.2029,-0.009520
3813.0666,-0.009619
3814.9303,-0.010035
3816.7939,-0.010270
3818.6576,-0.009987
3820.5213,-0.010246
3822.3850,-0.010369
3824.2486,-0.009638
3826.1123,-0.009686
3827.9760,-0.010040
3829.8396,-0.009911
3831.7033,-0.009794
3833.5670,-0.009728
3835.4306,-0.009691
3837.2943,-0.009830
3839.1580,-0.009940
3841.0216,-0.010177
3842.8853,-0.010193
3844.7490,-0.009755
3846.6126,-0.009527
3848.4763,-0.009977
3850.3400,-0.010289
3852.2037,-0.010517
3854.0673,-0.010808
3855.9310,-0.009960
3857.7947,-0.009204
3859.6583,-0.009667
3861.5220,-0.010073
3863.3857,-0.010128
3865.2493,-0.010178
3867.1130,-0.010004
3868.9767,-0.009672
3870.8403,-0.009747
3872.7040,-0.009733
3874.5677,-0.009962
3876.4314,-0.009760
3878.2950,-0.009364
3880.1587,-0.009777
3882.0224,-0.010177
3883.8860,-0.010000
3885.7497,-0.010080
3887.6134,-0.009842
3889.4770,-0.009544
3891.3407,-0.009791
3893.2044,-0.009838
3895.0680,-0.009557
3896.9317,-0.009514
3898.7954,-0.009676
3900.6590,-0.010037
3902.5227,-0.009968
3904.3864,-0.009911
3906.2501,-0.010261
3908.1137,-0.009933
3909.9774,-0.009346
3911.8411,-0.009356
3913.7047,-0.009486
3915.5684,-0.009714
3917.4321,-0.009689
3919.2957,-0.009289
3921.1594,-0.009023
3923.0231,-0.009504
3924.8867,-0.009574
3926.7504,-0.009120
3928.6141,-0.009378
3930.4777,-0.009865
3932.3414,-0.009650
3934.2051,-0.009433
3936.0688,-0.009288
3937.9324,-0.009219
3939.7961,-0.009360
3941.6598,-0.009443
3943.5234,-0.009477
3945.3871,-0.009331
3947.2508,-0.008874
3949.1144,-0.008817
3950.9781,-0.009081
3952.8418,-0.009196
3954.7054,-0.009334
3956.5691,-0.009311
3958.4328,-0.009002
3960.2965,-0.009000
3962.1601,-0.009307
3964.0238,-0.009472
3965.8875,-0.009333
3967.7511,-0.009156
3969.6148,-0.008973
3971.4785,-0.008861
3973.3421,-0.008989
3975.2058,-0.009232
3977.0695,-0.009239
3978.9331,-0.009417
3980.7968,-0.009265
3982.6605,-0.009097
3984.5241,-0.009014
3986.3878,-0.009074
3988.2515,-0.009245
3990.1152,-0.009300
3991.9788,-0.009491
3993.8425,-0.009659
3995.7062,-0.009477
3997.5698,-0.009258
3999.4335,-0.009282
