Wavenumber,Intensity
650.4205,0.052394
652.2841,0.049666
654.1478,0.050123
656.0115,0.052339
657.8751,0.051262
659.7388,0.050244
661.6025,0.052214
663.4661,0.053512
665.3298,0.051449
667.1935,0.048164
669.0571,0.049440
670.9208,0.049718
672.7845,0.049942
674.6481,0.050431
676.5118,0.050645
678.3755,0.050591
680.2392,0.048718
682.1028,0.047921
683.9665,0.048967
685.8302,0.048580
687.6938,0.046694
689.5575,0.045485
691.4212,0.045150
693.2848,0.044928
695.1485,0.044745
697.0122,0.044203
698.8758,0.043905
700.7395,0.044244
702.6032,0.044253
704.4669,0.043069
706.3305,0.041966
708.1942,0.041951
710.0579,0.041925
711.9215,0.041256
713.7852,0.040477
715.6489,0.039213
717.5125,0.038317
719.3762,0.038637
721.2399,0.038302
723.1035,0.037408
724.9672,0.037181
726.8309,0.037017
728.6945,0.036646
730.5582,0.036023
732.4219,0.035396
734.2856,0.035310
736.1492,0.035290
738.0129,0.035023
739.8766,0.034816
741.7402,0.034531
743.6039,0.034143
745.4676,0.033573
747.3312,0.033132
749.1949,0.032993
751.0586,0.032925
752.9222,0.032946
754.7859,0.032516
756.6496,0.032214
758.5132,0.032090
760.3769,0.031382
762.2406,0.030607
764.1043,0.030516
765.9679,0.030776
767.8316,0.030986
769.6953,0.031092
771.5589,0.030399
773.4226,0.029594
775.2863,0.029442
777.1499,0.029206
779.0136,0.029091
780.8773,0.029054
782.7409,0.028820
784.6046,0.028482
786.4683,0.027757
788.3320,0.027108
790.1956,0.026866
792.0593,0.026694
793.9230,0.026414
795.7866,0.026086
797.6503,0.025892
799.5140,0.025801
801.3776,0.025626
803.2413,0.025418
805.1050,0.025531
806.9686,0.025617
808.8323,0.025229
810.6960,0.024853
812.5596,0.024932
814.4233,0.025035
816.2870,0.024974
818.1507,0.024891
820.0143,0.024497
821.8780,0.023741
823.7417,0.023116
825.6053,0.022888
827.4690,0.022964
829.3327,0.022944
831.1963,0.022690
833.0600,0.022597
834.9237,0.022450
836.7873,0.022181
838.6510,0.022102
840.5147,0.021959
842.3784,0.021562
844.2420,0.021070
846.1057,0.020829
847.9694,0.020735
849.8330,0.020584
851.6967,0.020372
853.5604,0.020137
855.4240,0.019929
857.2877,0.019713
859.1514,0.019751
861.0150,0.020189
862.8787,0.020317
864.7424,0.020314
866.6060,0.020414
868.4697,0.020615
870.3334,0.020858
872.1971,0.020800
874.0607,0.020523
875.9244,0.020326
877.7881,0.020073
879.6517,0.019739
881.5154,0.019273
883.3791,0.018871
885.2427,0.018721
887.1064,0.018654
888.9701,0.018537
890.8337,0.018584
892.6974,0.018730
894.5611,0.018700
896.4247,0.018470
898.2884,0.018333
900.1521,0.018259
902.0158,0.017921
903.8794,0.017737
905.7431,0.017750
907.6068,0.017599
909.4704,0.017494
911.3341,0.017607
913.1978,0.017859
915.0614,0.017999
916.9251,0.017977
918.7888,0.018001
920.6524,0.018234
922.5161,0.018493
924.3798,0.018666
926.2435,0.018792
928.1071,0.018886
929.9708,0.019030
931.8345,0.019292
933.6981,0.019520
935.5618,0.019814
937.4255,0.020187
939.2891,0.020605
941.1528,0.021168
943.0165,0.021759
944.8801,0.022205
946.7438,0.022590
948.6075,0.022875
950.4711,0.023071
952.3348,0.023247
954.1985,0.023521
956.0622,0.023815
957.9258,0.024284
959.7895,0.025173
961.6532,0.026223
963.5168,0.027311
965.3805,0.028362
967.2442,0.029197
969.1078,0.029821
970.9715,0.030259
972.8352,0.030770
974.6988,0.031398
976.5625,0.032041
978.4262,0.032750
980.2899,0.033575
982.1535,0.034426
984.0172,0.035224
985.8809,0.035992
987.7445,0.036834
989.6082,0.037751
991.4719,0.038582
993.3355,0.039346
995.1992,0.040299
997.0629,0.041324
998.9265,0.042183
1000.7902,0.042936
1002.6539,0.043765
1004.5175,0.044738
1006.3812,0.045935
1008.2449,0.047244
1010.1086,0.048555
1011.9722,0.049972
1013.8359,0.051525
1015.6996,0.053127
1017.5632,0.054735
1019.4269,0.056087
1021.2906,0.057093
1023.1542,0.058070
1025.0179,0.058921
1026.8816,0.059491
1028.7452,0.060031
1030.6089,0.060603
1032.4726,0.060953
1034.3362,0.060988
1036.1999,0.060989
1038.0636,0.060990
1039.9273,0.060879
1041.7909,0.060625
1043.6546,0.060365
1045.5183,0.060175
1047.3819,0.059961
1049.2456,0.059893
1051.1093,0.059937
1052.9729,0.059982
1054.8366,0.060084
1056.7003,0.060219
1058.5639,0.060358
1060.4276,0.060499
1062.2913,0.060611
1064.1550,0.060781
1066.0186,0.060963
1067.8823,0.060868
1069.7460,0.060655
1071.6096,0.060370
1073.4733,0.059757
1075.3370,0.058922
1077.2006,0.057855
1079.0643,0.056479
1080.9280,0.055040
1082.7916,0.053694
1084.6553,0.052194
1086.5190,0.050593
1088.3826,0.049230
1090.2463,0.048064
1092.1100,0.046978
1093.9737,0.045932
1095.8373,0.044919
1097.7010,0.044020
1099.5647,0.043235
1101.4283,0.042442
1103.2920,0.041669
1105.1557,0.041010
1107.0193,0.040377
1108.8830,0.039752
1110.7467,0.039192
1112.6103,0.038646
1114.4740,0.037931
1116.3377,0.037052
1118.2014,0.036260
1120.0650,0.035564
1121.9287,0.034832
1123.7924,0.034153
1125.6560,0.033533
1127.5197,0.032890
1129.3834,0.032140
1131.2470,0.031395
1133.1107,0.030618
1134.9744,0.029653
1136.8380,0.028699
1138.7017,0.027779
1140.5654,0.026975
1142.4290,0.026337
1144.2927,0.025858
1146.1564,0.025483
1148.0201,0.025181
1149.8837,0.024927
1151.7474,0.024781
1153.6111,0.024677
1155.4747,0.024510
1157.3384,0.024210
1159.2021,0.023813
1161.0657,0.023445
1162.9294,0.023105
1164.7931,0.022664
1166.6567,0.022182
1168.5204,0.021576
1170.3841,0.020823
1172.2477,0.020039
1174.1114,0.019250
1175.9751,0.018446
1177.8388,0.017785
1179.7024,0.017215
1181.5661,0.016878
1183.4298,0.016872
1185.2934,0.016944
1187.1571,0.017078
1189.0208,0.017334
1190.8844,0.017566
1192.7481,0.017868
1194.6118,0.018185
1196.4754,0.018553
1198.3391,0.019055
1200.2028,0.019528
1202.0665,0.020000
1203.9301,0.020426
1205.7938,0.020811
1207.6575,0.021111
1209.5211,0.021325
1211.3848,0.021563
1213.2485,0.021778
1215.1121,0.022061
1216.9758,0.022444
1218.8395,0.022957
1220.7031,0.023475
1222.5668,0.023992
1224.4305,0.024596
1226.2941,0.025198
1228.1578,0.025649
1230.0215,0.026076
1231.8852,0.026646
1233.7488,0.027087
1235.6125,0.027371
1237.4762,0.027524
1239.3398,0.027533
1241.2035,0.027471
1243.0672,0.027463
1244.9308,0.027362
1246.7945,0.027083
1248.6582,0.026693
1250.5218,0.026382
1252.3855,0.026183
1254.2492,0.025880
1256.1129,0.025558
1257.9765,0.025327
1259.8402,0.025119
1261.7039,0.024957
1263.5675,0.024849
1265.4312,0.024726
1267.2949,0.024650
1269.1585,0.024610
1271.0222,0.024532
1272.8859,0.024506
1274.7495,0.024566
1276.6132,0.024679
1278.4769,0.024762
1280.3405,0.024787
1282.2042,0.024833
1284.0679,0.024969
1285.9316,0.025068
1287.7952,0.025214
1289.6589,0.025424
1291.5226,0.025598
1293.3862,0.025800
1295.2499,0.026017
1297.1136,0.026349
1298.9772,0.026723
1300.8409,0.027084
1302.7046,0.027363
1304.5682,0.027560
1306.4319,0.027852
1308.2956,0.028193
1310.1592,0.028409
1312.0229,0.028600
1313.8866,0.028811
1315.7503,0.028890
1317.6139,0.028844
1319.4776,0.028727
1321.3413,0.028472
1323.2049,0.028194
1325.0686,0.027985
1326.9323,0.027724
1328.7959,0.027588
1330.6596,0.027519
1332.5233,0.027526
1334.3869,0.027487
1336.2506,0.027489
1338.1143,0.027676
1339.9780,0.027939
1341.8416,0.027979
1343.7053,0.027836
1345.5690,0.027762
1347.4326,0.027738
1349.2963,0.027679
1351.1600,0.027707
1353.0236,0.027853
1354.8873,0.028008
1356.7510,0.027999
1358.6146,0.027953
1360.4783,0.028346
1362.3420,0.029082
1364.2056,0.029744
1366.0693,0.030286
1367.9330,0.030940
1369.7967,0.031560
1371.6603,0.032139
1373.5240,0.032822
1375.3877,0.033560
1377.2513,0.034023
1379.1150,0.034380
1380.9787,0.034555
1382.8423,0.034563
1384.7060,0.034681
1386.5697,0.034946
1388.4333,0.035247
1390.2970,0.035280
1392.1607,0.035241
1394.0244,0.035499
1395.8880,0.035907
1397.7517,0.036048
1399.6154,0.036193
1401.4790,0.036021
1403.3427,0.035619
1405.2064,0.035283
1407.0700,0.034840
1408.9337,0.034332
1410.7974,0.033905
1412.6610,0.033392
1414.5247,0.032779
1416.3884,0.032384
1418.2520,0.032360
1420.1157,0.032620
1421.9794,0.032448
1423.8431,0.032264
1425.7067,0.032291
1427.5704,0.032408
1429.4341,0.032957
1431.2977,0.033580
1433.1614,0.033869
1435.0251,0.034368
1436.8887,0.035584
1438.7524,0.036211
1440.6161,0.036150
1442.4797,0.036224
1444.3434,0.036126
1446.2071,0.036197
1448.0707,0.036328
1449.9344,0.036026
1451.7981,0.035415
1453.6618,0.034852
1455.5254,0.034329
1457.3891,0.034296
1459.2528,0.033514
1461.1164,0.032412
1462.9801,0.031585
1464.8438,0.031007
1466.7074,0.030278
1468.5711,0.029436
1470.4348,0.028624
1472.2984,0.028073
1474.1621,0.027699
1476.0258,0.027081
1477.8895,0.026534
1479.7531,0.026199
1481.6168,0.026090
1483.4805,0.026060
1485.3441,0.026298
1487.2078,0.027159
1489.0715,0.028326
1490.9351,0.029474
1492.7988,0.030016
1494.6625,0.030664
1496.5261,0.032482
1498.3898,0.034023
1500.2535,0.034680
1502.1171,0.035134
1503.9808,0.035866
1505.8445,0.038594
1507.7082,0.042688
1509.5718,0.043311
1511.4355,0.043800
1513.2992,0.044807
1515.1628,0.045552
1517.0265,0.046414
1518.8902,0.046994
1520.7538,0.047362
1522.6175,0.048441
1524.4812,0.049057
1526.3448,0.049898
1528.2085,0.050425
1530.0722,0.050567
1531.9359,0.050854
1533.7995,0.051783
1535.6632,0.051735
1537.5269,0.051073
1539.3905,0.051651
1541.2542,0.053141
1543.1179,0.052898
1544.9815,0.052304
1546.8452,0.051736
1548.7089,0.050779
1550.5725,0.049916
1552.4362,0.048893
1554.2999,0.047612
1556.1635,0.046582
1558.0272,0.045749
1559.8909,0.045650
1561.7546,0.044746
1563.6182,0.043361
1565.4819,0.042235
1567.3456,0.041271
1569.2092,0.040413
1571.0729,0.039751
1572.9366,0.038874
1574.8002,0.038187
1576.6639,0.038134
1578.5276,0.037698
1580.3912,0.037224
1582.2549,0.036992
1584.1186,0.036792
1585.9822,0.037143
1587.8459,0.037694
1589.7096,0.038187
1591.5733,0.038884
1593.4369,0.039717
1595.3006,0.040622
1597.1643,0.041615
1599.0279,0.042744
1600.8916,0.044072
1602.7553,0.045491
1604.6189,0.046914
1606.4826,0.048295
1608.3463,0.050021
1610.2099,0.051779
1612.0736,0.053219
1613.9373,0.054277
1615.8010,0.055849
1617.6646,0.058340
1619.5283,0.059379
1621.3920,0.059923
1623.2556,0.061200
1625.1193,0.062339
1626.9830,0.063102
1628.8466,0.063710
1630.7103,0.063864
1632.5740,0.063528
1634.4376,0.063187
1636.3013,0.063592
1638.1650,0.063631
1640.0286,0.062719
1641.8923,0.061583
1643.7560,0.060337
1645.6197,0.059064
1647.4833,0.058480
1649.3470,0.057865
1651.2107,0.055758
1653.0743,0.054096
1654.9380,0.053611
1656.8017,0.052067
1658.6653,0.050229
1660.5290,0.048452
1662.3927,0.046578
1664.2563,0.045126
1666.1200,0.043355
1667.9837,0.041084
1669.8474,0.039167
1671.7110,0.037677
1673.5747,0.035588
1675.4384,0.033397
1677.3020,0.031521
1679.1657,0.029658
1681.0294,0.027496
1682.8930,0.024695
1684.7567,0.021916
1686.6204,0.020463
1688.4840,0.018557
1690.3477,0.016337
1692.2114,0.014290
1694.0750,0.011999
1695.9387,0.009167
1697.8024,0.007307
1699.6661,0.004992
1701.5297,0.003152
1703.3934,0.002117
1705.2571,0.000693
1707.1207,-0.000429
1708.9844,-0.001159
1710.8481,-0.001818
1712.7117,-0.002400
1714.5754,-0.003116
1716.4391,-0.003813
1718.3027,-0.004196
1720.1664,-0.003985
1722.0301,-0.004256
1723.8937,-0.004462
1725.7574,-0.004487
1727.6211,-0.004525
1729.4848,-0.004460
1731.3484,-0.004389
1733.2121,-0.005326
1735.0758,-0.005439
1736.9394,-0.005116
1738.8031,-0.005467
1740.6668,-0.005557
1742.5304,-0.005433
1744.3941,-0.005406
1746.2578,-0.005432
1748.1214,-0.005606
1749.9851,-0.005887
1751.8488,-0.005970
1753.7125,-0.005819
1755.5761,-0.005907
1757.4398,-0.005850
1759.3035,-0.006054
1761.1671,-0.006445
1763.0308,-0.006223
1764.8945,-0.005988
1766.7581,-0.006197
1768.6218,-0.006250
1770.4855,-0.006444
1772.3491,-0.006685
1774.2128,-0.006396
1776.0765,-0.006245
1777.9401,-0.006154
1779.8038,-0.006184
1781.6675,-0.006329
1783.5312,-0.006475
1785.3948,-0.006408
1787.2585,-0.006198
1789.1222,-0.006300
1790.9858,-0.006657
1792.8495,-0.006571
1794.7132,-0.006212
1796.5768,-0.006146
1798.4405,-0.006141
1800.3042,-0.006184
1802.1678,-0.006288
1804.0315,-0.006209
1805.8952,-0.006207
1807.7589,-0.006329
1809.6225,-0.006360
1811.4862,-0.006468
1813.3499,-0.006394
1815.2135,-0.006306
1817.0772,-0.006401
1818.9409,-0.006408
1820.8045,-0.006228
1822.6682,-0.006237
1824.5319,-0.006204
1826.3955,-0.006012
1828.2592,-0.005904
1830.1229,-0.005959
1831.9865,-0.006024
1833.8502,-0.006009
1835.7139,-0.006024
1837.5776,-0.006244
1839.4412,-0.006193
1841.3049,-0.006108
1843.1686,-0.006187
1845.0322,-0.006102
1846.8959,-0.005943
1848.7596,-0.006019
1850.6232,-0.006033
1852.4869,-0.005807
1854.3506,-0.005494
1856.2142,-0.005885
1858.0779,-0.006146
1859.9416,-0.006187
1861.8052,-0.006141
1863.6689,-0.005614
1865.5326,-0.005225
1867.3963,-0.005422
1869.2599,-0.005579
1871.1236,-0.005620
1872.9873,-0.005430
1874.8509,-0.005321
1876.7146,-0.005680
1878.5783,-0.005948
1880.4419,-0.005759
1882.3056,-0.005802
1884.1693,-0.005624
1886.0329,-0.005315
1887.8966,-0.005339
1889.7603,-0.005353
1891.6240,-0.005253
1893.4876,-0.005069
1895.3513,-0.005025
1897.2150,-0.005243
1899.0786,-0.005108
1900.9423,-0.005151
1902.8060,-0.004906
1904.6696,-0.004500
1906.5333,-0.004741
1908.3970,-0.004956
1910.2606,-0.004716
1912.1243,-0.004774
1913.9880,-0.004940
1915.8516,-0.004686
1917.7153,-0.004834
1919.5790,-0.005252
1921.4427,-0.005257
1923.3063,-0.004907
1925.1700,-0.004697
1927.0337,-0.004486
1928.8973,-0.003952
1930.7610,-0.003425
1932.6247,-0.003750
1934.4883,-0.004313
1936.3520,-0.004115
1938.2157,-0.004301
1940.0793,-0.004383
1941.9430,-0.003868
1943.8067,-0.003511
1945.6704,-0.002882
1947.5340,-0.003077
1949.3977,-0.004080
1951.2614,-0.003758
1953.1250,-0.003308
1954.9887,-0.003954
1956.8524,-0.004238
1958.7160,-0.004150
1960.5797,-0.003962
1962.4434,-0.003546
1964.3070,-0.003272
1966.1707,-0.002456
1968.0344,-0.001129
1969.8980,-0.000910
1971.7617,-0.001467
1973.6254,-0.001172
1975.4891,-0.000555
1977.3527,-0.000130
1979.2164,0.000089
1981.0801,-0.000285
1982.9437,-0.000419
1984.8074,-0.000463
1986.6711,-0.001165
1988.5347,-0.001624
1990.3984,-0.001961
1992.2621,-0.001602
1994.1257,-0.000485
1995.9894,-0.000631
1997.8531,-0.001595
1999.7167,-0.002036
2001.5804,-0.001861
2003.4441,-0.001705
2005.3078,-0.001288
2007.1714,-0.000531
2009.0351,-0.000357
2010.8988,-0.000894
2012.7624,-0.000939
2014.6261,-0.001045
2016.4898,-0.001228
2018.3534,-0.000737
2020.2171,-0.000406
2022.0808,-0.000246
2023.9444,-0.000859
2025.8081,-0.000600
2027.6718,0.001050
2029.5355,0.000910
2031.3991,0.000004
2033.2628,0.000497
2035.1265,0.001108
2036.9901,0.000926
2038.8538,0.000472
2040.7175,0.000857
2042.5811,0.001398
2044.4448,0.001006
2046.3085,0.001048
2048.1721,0.001391
2050.0358,0.001027
2051.8995,0.000110
2053.7631,-0.000729
2055.6268,-0.001363
2057.4905,-0.001754
2059.3542,-0.001194
2061.2178,-0.000540
2063.0815,-0.000518
2064.9452,-0.001115
2066.8088,-0.001367
2068.6725,-0.000554
2070.5362,-0.000344
2072.3998,-0.001090
2074.2635,-0.001199
2076.1272,-0.001318
2077.9908,-0.001513
2079.8545,-0.001325
2081.7182,-0.001258
2083.5819,-0.001584
2085.4455,-0.002005
2087.3092,-0.002090
2089.1729,-0.002004
2091.0365,-0.002072
2092.9002,-0.002104
2094.7639,-0.002267
2096.6275,-0.002445
2098.4912,-0.002247
2100.3549,-0.002490
2102.2185,-0.002440
2104.0822,-0.001986
2105.9459,-0.001799
2107.8095,-0.001450
2109.6732,-0.001360
2111.5369,-0.001630
2113.4006,-0.001947
2115.2642,-0.002325
2117.1279,-0.002187
2118.9916,-0.001982
2120.8552,-0.002326
2122.7189,-0.002666
2124.5826,-0.002571
2126.4462,-0.002730
2128.3099,-0.003202
2130.1736,-0.003325
2132.0372,-0.003667
2133.9009,-0.003434
2135.7646,-0.002034
2137.6282,-0.001477
2139.4919,-0.002123
2141.3556,-0.002468
2143.2193,-0.001613
2145.0829,-0.000946
2146.9466,-0.000822
2148.8103,-0.000124
2150.6739,-0.000669
2152.5376,-0.001503
2154.4013,-0.001460
2156.2649,-0.001929
2158.1286,0.000047
2159.9923,0.003696
2161.8559,0.004068
2163.7196,0.003118
2165.5833,0.002426
2167.4470,0.001227
2169.3106,0.000434
2171.1743,0.000073
2173.0380,0.000225
2174.9016,0.000566
2176.7653,0.000628
2178.6290,0.001055
2180.4926,0.000958
2182.3563,0.000894
2184.2200,0.001591
2186.0836,0.001287
2187.9473,0.000353
2189.8110,0.000482
2191.6746,0.000857
2193.5383,0.000706
2195.4020,0.000706
2197.2657,0.000418
2199.1293,-0.000168
2200.9930,-0.000119
2202.8567,-0.000005
2204.7203,0.000325
2206.5840,0.000826
2208.4477,0.000552
2210.3113,0.000559
2212.1750,0.000758
2214.0387,-0.000170
2215.9023,-0.000750
2217.7660,-0.000233
2219.6297,-0.000214
2221.4934,-0.000639
2223.3570,-0.000923
2225.2207,-0.001034
2227.0844,-0.000669
2228.9480,-0.000081
2230.8117,-0.000233
2232.6754,-0.001079
2234.5390,-0.001374
2236.4027,-0.000939
2238.2664,-0.000234
2240.1300,0.000202
2241.9937,-0.000286
2243.8574,-0.000817
2245.7210,-0.000885
2247.5847,-0.001212
2249.4484,-0.001523
2251.3121,-0.001449
2253.1757,-0.001690
2255.0394,-0.001881
2256.9031,-0.001230
2258.7667,-0.001220
2260.6304,-0.002015
2262.4941,-0.002222
2264.3577,-0.001872
2266.2214,-0.001737
2268.0851,-0.001925
2269.9487,-0.001774
2271.8124,-0.001513
2273.6761,-0.001407
2275.5397,-0.001371
2277.4034,-0.001353
2279.2671,-0.001517
2281.1308,-0.001931
2282.9944,-0.001967
2284.8581,-0.001631
2286.7218,-0.001713
2288.5854,-0.002023
2290.4491,-0.002289
2292.3128,-0.002450
2294.1764,-0.002531
2296.0401,-0.002701
2297.9038,-0.002667
2299.7674,-0.002499
2301.6311,-0.002568
2303.4948,-0.002916
2305.3585,-0.003047
2307.2221,-0.002731
2309.0858,-0.002810
2310.9495,-0.003225
2312.8131,-0.003099
2314.6768,-0.002890
2316.5405,-0.002942
2318.4041,-0.002909
2320.2678,-0.002830
2322.1315,-0.002887
2323.9951,-0.003023
2325.8588,-0.003299
2327.7225,-0.003734
2329.5861,-0.003589
2331.4498,-0.003323
2333.3135,-0.003744
2335.1772,-0.004024
2337.0408,-0.003829
2338.9045,-0.003904
2340.7682,-0.003942
2342.6318,-0.003752
2344.4955,-0.003985
2346.3592,-0.004273
2348.2228,-0.004440
2350.0865,-0.004707
2351.9502,-0.004693
2353.8138,-0.004044
2355.6775,-0.003636
2357.5412,-0.003824
2359.4049,-0.004215
2361.2685,-0.004406
2363.1322,-0.004467
2364.9959,-0.004921
2366.8595,-0.005008
2368.7232,-0.004301
2370.5869,-0.003934
2372.4505,-0.003731
2374.3142,-0.003653
2376.1779,-0.004187
2378.0415,-0.004655
2379.9052,-0.004607
2381.7689,-0.004548
2383.6325,-0.004589
2385.4962,-0.004331
2387.3599,-0.004161
2389.2236,-0.004375
2391.0872,-0.004815
2392.9509,-0.004897
2394.8146,-0.004369
2396.6782,-0.004125
2398.5419,-0.004325
2400.4056,-0.004422
2402.2692,-0.004382
2404.1329,-0.004204
2405.9966,-0.004166
2407.8602,-0.004325
2409.7239,-0.004251
2411.5876,-0.004023
2413.4512,-0.003994
2415.3149,-0.003969
2417.1786,-0.003854
2419.0423,-0.003831
2420.9059,-0.003987
2422.7696,-0.004001
2424.6333,-0.003769
2426.4969,-0.003698
2428.3606,-0.003642
2430.2243,-0.003673
2432.0879,-0.003734
2433.9516,-0.003625
2435.8153,-0.003279
2437.6789,-0.003074
2439.5426,-0.003477
2441.4063,-0.003826
2443.2700,-0.003574
2445.1336,-0.003536
2446.9973,-0.003558
2448.8610,-0.003518
2450.7246,-0.003692
2452.5883,-0.003542
2454.4520,-0.003197
2456.3156,-0.003148
2458.1793,-0.003302
2460.0430,-0.003167
2461.9066,-0.003113
2463.7703,-0.003206
2465.6340,-0.003347
2467.4976,-0.003384
2469.3613,-0.003331
2471.2250,-0.003437
2473.0887,-0.003556
2474.9523,-0.003513
2476.8160,-0.003222
2478.6797,-0.003047
2480.5433,-0.003103
2482.4070,-0.003410
2484.2707,-0.003589
2486.1343,-0.003487
2487.9980,-0.003370
2489.8617,-0.003254
2491.7253,-0.003408
2493.5890,-0.003476
2495.4527,-0.003234
2497.3164,-0.002983
2499.1800,-0.002918
2501.0437,-0.003010
2502.9074,-0.003300
2504.7710,-0.003506
2506.6347,-0.003447
2508.4984,-0.003031
2510.3620,-0.002931
2512.2257,-0.003244
2514.0894,-0.003270
2515.9530,-0.003119
2517.8167,-0.003215
2519.6804,-0.002939
2521.5440,-0.002665
2523.4077,-0.002762
2525.2714,-0.002785
2527.1351,-0.002822
2528.9987,-0.002761
2530.8624,-0.002789
2532.7261,-0.003040
2534.5897,-0.003276
2536.4534,-0.003268
2538.3171,-0.002984
2540.1807,-0.002873
2542.0444,-0.002707
2543.9081,-0.002631
2545.7717,-0.002847
2547.6354,-0.002914
2549.4991,-0.002666
2551.3627,-0.002804
2553.2264,-0.002875
2555.0901,-0.002449
2556.9538,-0.002556
2558.8174,-0.002921
2560.6811,-0.002583
2562.5448,-0.002116
2564.4084,-0.002412
2566.2721,-0.002716
2568.1358,-0.002656
2569.9994,-0.002462
2571.8631,-0.002126
2573.7268,-0.002249
2575.5904,-0.002468
2577.4541,-0.002398
2579.3178,-0.002425
2581.1815,-0.002066
2583.0451,-0.001809
2584.9088,-0.002175
2586.7725,-0.002323
2588.6361,-0.002303
2590.4998,-0.002069
2592.3635,-0.001767
2594.2271,-0.002024
2596.0908,-0.002200
2597.9545,-0.002161
2599.8181,-0.001997
2601.6818,-0.001904
2603.5455,-0.001936
2605.4091,-0.001892
2607.2728,-0.001790
2609.1365,-0.001685
2611.0002,-0.001479
2612.8638,-0.001451
2614.7275,-0.001820
2616.5912,-0.002074
2618.4548,-0.001963
2620.3185,-0.001896
2622.1822,-0.001801
2624.0458,-0.001805
2625.9095,-0.001759
2627.7732,-0.001678
2629.6368,-0.001572
2631.5005,-0.001298
2633.3642,-0.001151
2635.2279,-0.001274
2637.0915,-0.001433
2638.9552,-0.001431
2640.8189,-0.001419
2642.6825,-0.001503
2644.5462,-0.001495
2646.4099,-0.001390
2648.2735,-0.001372
2650.1372,-0.001368
2652.0009,-0.001354
2653.8645,-0.001370
2655.7282,-0.001279
2657.5919,-0.001336
2659.4555,-0.001509
2661.3192,-0.001619
2663.1829,-0.001722
2665.0466,-0.001625
2666.9102,-0.001416
2668.7739,-0.001523
2670.6376,-0.001795
2672.5012,-0.001910
2674.3649,-0.001730
2676.2286,-0.001500
2678.0922,-0.001497
2679.9559,-0.001558
2681.8196,-0.001472
2683.6832,-0.001368
2685.5469,-0.001316
2687.4106,-0.001312
2689.2742,-0.001201
2691.1379,-0.001081
2693.0016,-0.001081
2694.8653,-0.001118
2696.7289,-0.001148
2698.5926,-0.001065
2700.4563,-0.000922
2702.3199,-0.000971
2704.1836,-0.000917
2706.0473,-0.000725
2707.9109,-0.000661
2709.7746,-0.000590
2711.6383,-0.000559
2713.5019,-0.000583
2715.3656,-0.000613
2717.2293,-0.000565
2719.0930,-0.000480
2720.9566,-0.000257
2722.8203,-0.000153
2724.6840,-0.000164
2726.5476,-0.000028
2728.4113,-0.000003
2730.2750,0.000071
2732.1386,0.000176
2734.0023,0.000172
2735.8660,0.000096
2737.7296,0.000135
2739.5933,0.000389
2741.4570,0.000537
2743.3206,0.000603
2745.1843,0.000567
2747.0480,0.000572
2748.9117,0.000653
2750.7753,0.000633
2752.6390,0.000710
2754.5027,0.000878
2756.3663,0.000956
2758.2300,0.000973
2760.0937,0.001124
2761.9573,0.001286
2763.8210,0.001405
2765.6847,0.001384
2767.5483,0.001454
2769.4120,0.001649
2771.2757,0.001714
2773.1394,0.001706
2775.0030,0.001735
2776.8667,0.001895
2778.7304,0.002327
2780.5940,0.002511
2782.4577,0.002409
2784.3214,0.002233
2786.1850,0.002321
2788.0487,0.002562
2789.9124,0.002780
2791.7760,0.002929
2793.6397,0.003115
2795.5034,0.003108
2797.3670,0.002976
2799.2307,0.002986
2801.0944,0.003195
2802.9581,0.003380
2804.8217,0.003445
2806.6854,0.003621
2808.5491,0.003953
2810.4127,0.003986
2812.2764,0.003980
2814.1401,0.004053
2816.0037,0.004130
2817.8674,0.004477
2819.7311,0.004625
2821.5947,0.004453
2823.4584,0.004575
2825.3221,0.004952
2827.1857,0.005075
2829.0494,0.005110
2830.9131,0.005263
2832.7768,0.005459
2834.6404,0.005604
2836.5041,0.005854
2838.3678,0.006126
2840.2314,0.006312
2842.0951,0.006567
2843.9588,0.006850
2845.8224,0.007059
2847.6861,0.007180
2849.5498,0.007410
2851.4134,0.007846
2853.2771,0.008154
2855.1408,0.008280
2857.0045,0.008230
2858.8681,0.008483
2860.7318,0.008604
2862.5955,0.008704
2864.4591,0.008876
2866.3228,0.009199
2868.1865,0.009743
2870.0501,0.010066
2871.9138,0.009965
2873.7775,0.009908
2875.6411,0.010042
2877.5048,0.010082
2879.3685,0.010064
2881.2321,0.010165
2883.0958,0.010284
2884.9595,0.010332
2886.8232,0.010267
2888.6868,0.010101
2890.5505,0.010074
2892.4142,0.010203
2894.2778,0.010518
2896.1415,0.010858
2898.0052,0.011094
2899.8688,0.011033
2901.7325,0.010966
2903.5962,0.011196
2905.4598,0.011506
2907.3235,0.011770
2909.1872,0.012058
2911.0509,0.012368
2912.9145,0.012504
2914.7782,0.012809
2916.6419,0.013072
2918.5055,0.013268
2920.3692,0.013594
2922.2329,0.013983
2924.0965,0.013943
2925.9602,0.013737
2927.8239,0.013914
2929.6875,0.014042
2931.5512,0.014052
2933.4149,0.014221
2935.2785,0.014225
2937.1422,0.014001
2939.0059,0.014016
2940.8696,0.014078
2942.7332,0.013782
2944.5969,0.013483
2946.4606,0.013427
2948.3242,0.013627
2950.1879,0.013732
2952.0516,0.013785
2953.9152,0.013765
2955.7789,0.013747
2957.6426,0.013937
2959.5062,0.013898
2961.3699,0.013626
2963.2336,0.013505
2965.0972,0.013412
2966.9609,0.013242
2968.8246,0.013172
2970.6883,0.012997
2972.5519,0.012940
2974.4156,0.012897
2976.2793,0.012508
2978.1429,0.012086
2980.0066,0.011944
2981.8703,0.012042
2983.7339,0.011949
2985.5976,0.011642
2987.4613,0.011566
2989.3249,0.011348
2991.1886,0.010874
2993.0523,0.010880
2994.9160,0.011004
2996.7796,0.010963
2998.6433,0.010943
3000.5070,0.011112
3002.3706,0.011224
3004.2343,0.011448
3006.0980,0.011651
3007.9616,0.011796
3009.8253,0.011868
3011.6890,0.012112
3013.5526,0.012315
3015.4163,0.012429
3017.2800,0.012601
3019.1436,0.012663
3021.0073,0.012753
3022.8710,0.012966
3024.7347,0.013200
3026.5983,0.013530
3028.4620,0.013765
3030.3257,0.013963
3032.1893,0.013855
3034.0530,0.014179
3035.9167,0.014679
3037.7803,0.014877
3039.6440,0.014972
3041.5077,0.015198
3043.3713,0.015215
3045.2350,0.015279
3047.0987,0.015568
3048.9624,0.015897
3050.8260,0.016170
3052.6897,0.016295
3054.5534,0.016312
3056.4170,0.016318
3058.2807,0.016744
3060.1444,0.017137
3062.0080,0.017299
3063.8717,0.017378
3065.7354,0.017366
3067.5990,0.017344
3069.4627,0.017368
3071.3264,0.017475
3073.1900,0.017713
3075.0537,0.018081
3076.9174,0.018100
3078.7811,0.018068
3080.6447,0.018040
3082.5084,0.017904
3084.3721,0.017839
3086.2357,0.017781
3088.0994,0.017949
3089.9631,0.018129
3091.8267,0.018019
3093.6904,0.017859
3095.5541,0.017908
3097.4177,0.018161
3099.2814,0.018231
3101.1451,0.018248
3103.0087,0.018461
3104.8724,0.018552
3106.7361,0.018480
3108.5998,0.018652
3110.4634,0.018857
3112.3271,0.018912
3114.1908,0.019439
3116.0544,0.019629
3117.9181,0.019272
3119.7818,0.019204
3121.6454,0.019557
3123.5091,0.019846
3125.3728,0.019912
3127.2364,0.020004
3129.1001,0.020269
3130.9638,0.020451
3132.8275,0.020710
3134.6911,0.020906
3136.5548,0.021101
3138.4185,0.021307
3140.2821,0.021495
3142.1458,0.021803
3144.0095,0.022076
3145.8731,0.022153
3147.7368,0.022316
3149.6005,0.022797
3151.4641,0.023085
3153.3278,0.023321
3155.1915,0.023228
3157.0551,0.023317
3158.9188,0.024088
3160.7825,0.024532
3162.6462,0.024510
3164.5098,0.024549
3166.3735,0.024811
3168.2372,0.025376
3170.1008,0.025827
3171.9645,0.026045
3173.8282,0.026381
3175.6918,0.026272
3177.5555,0.026337
3179.4192,0.027180
3181.2828,0.027413
3183.1465,0.027167
3185.0102,0.027619
3186.8739,0.028048
3188.7375,0.028446
3190.6012,0.028720
3192.4649,0.028829
3194.3285,0.029245
3196.1922,0.029314
3198.0559,0.029066
3199.9195,0.028924
3201.7832,0.028842
3203.6469,0.029319
3205.5105,0.029632
3207.3742,0.029671
3209.2379,0.029920
3211.1015,0.030065
3212.9652,0.030017
3214.8289,0.030150
3216.6926,0.030176
3218.5562,0.030073
3220.4199,0.030397
3222.2836,0.030552
3224.1472,0.030834
3226.0109,0.031225
3227.8746,0.031351
3229.7382,0.031016
3231.6019,0.031028
3233.4656,0.031163
3235.3292,0.031287
3237.1929,0.031451
3239.0566,0.031722
3240.9202,0.031819
3242.7839,0.032062
3244.6476,0.032416
3246.5113,0.032461
3248.3749,0.032240
3250.2386,0.032312
3252.1023,0.033014
3253.9659,0.033334
3255.8296,0.032954
3257.6933,0.032757
3259.5569,0.032793
3261.4206,0.032905
3263.2843,0.033229
3265.1479,0.033473
3267.0116,0.033148
3268.8753,0.032923
3270.7390,0.033566
3272.6026,0.034141
3274.4663,0.033852
3276.3300,0.033318
3278.1936,0.033200
3280.0573,0.033172
3281.9210,0.032828
3283.7846,0.032913
3285.6483,0.033014
3287.5120,0.032772
3289.3756,0.032591
3291.2393,0.032627
3293.1030,0.032536
3294.9666,0.032460
3296.8303,0.032359
3298.6940,0.032444
3300.5577,0.032041
3302.4213,0.031947
3304.2850,0.032188
3306.1487,0.031893
3308.0123,0.031181
3309.8760,0.031088
3311.7397,0.030685
3313.6033,0.030444
3315.4670,0.030560
3317.3307,0.030531
3319.1943,0.030562
3321.0580,0.030865
3322.9217,0.030684
3324.7854,0.030022
3326.6490,0.030022
3328.5127,0.030251
3330.3764,0.029629
3332.2400,0.028724
3334.1037,0.028578
3335.9674,0.029086
3337.8310,0.029218
3339.6947,0.029203
3341.5584,0.028838
3343.4220,0.028630
3345.2857,0.028924
3347.1494,0.028888
3349.0130,0.028586
3350.8767,0.028402
3352.7404,0.027981
3354.6041,0.028040
3356.4677,0.028068
3358.3314,0.027604
3360.1951,0.027460
3362.0587,0.027686
3363.9224,0.027483
3365.7861,0.027247
3367.6497,0.027274
3369.5134,0.027100
3371.3771,0.026841
3373.2407,0.026541
3375.1044,0.026154
3376.9681,0.025694
3378.8317,0.025874
3380.6954,0.026226
3382.5591,0.025924
3384.4228,0.025792
3386.2864,0.025630
3388.1501,0.025129
3390.0138,0.025120
3391.8774,0.025192
3393.7411,0.024675
3395.6048,0.024635
3397.4684,0.024714
3399.3321,0.024354
3401.1958,0.024212
3403.0594,0.024432
3404.9231,0.024570
3406.7868,0.023950
3408.6505,0.023324
3410.5141,0.023281
3412.3778,0.023148
3414.2415,0.023065
3416.1051,0.023173
3417.9688,0.022975
3419.8325,0.022795
3421.6961,0.022720
3423.5598,0.022331
3425.4235,0.021894
3427.2871,0.021580
3429.1508,0.021668
3431.0145,0.021497
3432.8781,0.021585
3434.7418,0.021543
3436.6055,0.020790
3438.4692,0.020438
3440.3328,0.020662
3442.1965,0.020190
3444.0602,0.019135
3445.9238,0.018447
3447.7875,0.018841
3449.6512,0.019145
3451.5148,0.018720
3453.3785,0.018653
3455.2422,0.018920
3457.1058,0.018595
3458.9695,0.017791
3460.8332,0.017219
3462.6969,0.017045
3464.5605,0.017292
3466.4242,0.017167
3468.2879,0.016439
3470.1515,0.016499
3472.0152,0.016705
3473.8789,0.016066
3475.7425,0.015525
3477.6062,0.015063
3479.4699,0.014361
3481.3335,0.014702
3483.1972,0.015322
3485.0609,0.014080
3486.9245,0.012980
3488.7882,0.013453
3490.6519,0.013762
3492.5156,0.013087
3494.3792,0.012293
3496.2429,0.012027
3498.1066,0.011908
3499.9702,0.011754
3501.8339,0.011248
3503.6976,0.010602
3505.5612,0.010560
3507.4249,0.010642
3509.2886,0.010263
3511.1522,0.009842
3513.0159,0.009475
3514.8796,0.008954
3516.7432,0.008798
3518.6069,0.009072
3520.4706,0.009095
3522.3343,0.008451
3524.1979,0.007581
3526.0616,0.006956
3527.9253,0.006648
3529.7889,0.006607
3531.6526,0.006659
3533.5163,0.006721
3535.3799,0.006299
3537.2436,0.005683
3539.1073,0.005460
3540.9709,0.005593
3542.8346,0.005284
3544.6983,0.004738
3546.5620,0.004366
3548.4256,0.004085
3550.2893,0.003670
3552.1530,0.003059
3554.0166,0.002933
3555.8803,0.003093
3557.7440,0.002961
3559.6076,0.002605
3561.4713,0.002030
3563.3350,0.001807
3565.1986,0.001637
3567.0623,0.000690
3568.9260,-0.000240
3570.7896,0.000226
3572.6533,0.000504
3574.5170,-0.000171
3576.3807,-0.000454
3578.2443,-0.000641
3580.1080,-0.000413
3581.9717,0.000042
3583.8353,-0.000787
3585.6990,-0.001877
3587.5627,-0.002263
3589.4263,-0.001917
3591.2900,-0.001652
3593.1537,-0.002244
3595.0173,-0.002869
3596.8810,-0.003051
3598.7447,-0.003536
3600.6084,-0.003847
3602.4720,-0.003594
3604.3357,-0.003676
3606.1994,-0.004173
3608.0630,-0.004828
3609.9267,-0.004734
3611.7904,-0.004282
3613.6540,-0.004657
3615.5177,-0.005042
3617.3814,-0.005287
3619.2450,-0.005664
3621.1087,-0.006115
3622.9724,-0.006354
3624.8360,-0.006387
3626.6997,-0.006542
3628.5634,-0.006724
3630.4271,-0.006798
3632.2907,-0.006642
3634.1544,-0.006754
3636.0181,-0.007346
3637.8817,-0.007787
3639.7454,-0.007807
3641.6091,-0.007763
3643.4727,-0.007770
3645.3364,-0.007909
3647.2001,-0.008804
3649.0637,-0.009670
3650.9274,-0.009097
3652.7911,-0.008334
3654.6547,-0.008414
3656.5184,-0.008883
3658.3821,-0.009070
3660.2458,-0.009409
3662.1094,-0.009822
3663.9731,-0.009938
3665.8368,-0.009909
3667.7004,-0.009759
3669.5641,-0.009934
3671.4278,-0.010037
3673.2914,-0.010118
3675.1551,-0.010924
3677.0188,-0.010860
3678.8824,-0.010463
3680.7461,-0.010749
3682.6098,-0.010758
3684.4735,-0.010620
3686.3371,-0.010734
3688.2008,-0.011337
3690.0645,-0.011461
3691.9281,-0.010633
3693.7918,-0.010305
3695.6555,-0.010255
3697.5191,-0.010078
3699.3828,-0.010310
3701.2465,-0.010782
3703.1101,-0.010836
3704.9738,-0.010545
3706.8375,-0.010610
3708.7011,-0.011155
3710.5648,-0.011252
3712.4285,-0.011045
3714.2922,-0.011169
3716.1558,-0.010794
3718.0195,-0.010506
3719.8832,-0.010911
3721.7468,-0.011174
3723.6105,-0.010749
3725.4742,-0.010564
3727.3378,-0.010737
3729.2015,-0.010779
3731.0652,-0.010951
3732.9288,-0.011334
3734.7925,-0.011507
3736.6562,-0.011083
3738.5199,-0.010674
3740.3835,-0.010530
3742.2472,-0.010599
3744.1109,-0.011131
3745.9745,-0.011280
3747.8382,-0.010926
3749.7019,-0.011328
3751.5655,-0.011829
3753.4292,-0.011457
3755.2929,-0.010668
3757.1565,-0.010472
3759.0202,-0.010854
3760.8839,-0.010906
3762.7475,-0.010672
3764.6112,-0.010760
3766.4749,-0.010866
3768.3386,-0.010695
3770.2022,-0.010551
3772.0659,-0.010447
3773.9296,-0.010821
3775.7932,-0.011085
3777.6569,-0.010731
3779.5206,-0.010764
3781.3842,-0.011189
3783.2479,-0.011106
3785.1116,-0.010991
3786.9752,-0.010927
3788.8389,-0.010655
3790.7026,-0.010471
3792.5662,-0.010863
3794.4299,-0.011502
3796.2936,-0.011605
3798.1573,-0.011040
3800.0209,-0.010842
3801.8846,-0.011153
3803.7483,-0.010896
3805.6119,-0.010765
3807.4756,-0.011015
3809.3393,-0.011103
3811.2029,-0.011165
3813.0666,-0.011219
3814.9303,-0.011275
3816.7939,-0.011457
3818.6576,-0.011221
3820.5213,-0.010998
3822.3850,-0.010864
3824.2486,-0.010385
3826.1123,-0.010710
3827.9760,-0.011322
3829.8396,-0.011318
3831.7033,-0.011012
3833.5670,-0.010878
3835.4306,-0.011171
3837.2943,-0.011347
3839.1580,-0.011208
3841.0216,-0.010913
3842.8853,-0.010604
3844.7490,-0.010758
3846.6126,-0.010787
3848.4763,-0.011055
3850.3400,-0.011454
3852.2037,-0.011598
3854.0673,-0.011527
3855.9310,-0.011085
3857.7947,-0.010659
3859.6583,-0.010655
3861.5220,-0.010736
3863.3857,-0.010933
3865.2493,-0.010947
3867.1130,-0.010929
3868.9767,-0.011370
3870.8403,-0.011345
3872.7040,-0.010471
3874.5677,-0.010471
3876.4314,-0.010574
3878.2950,-0.010563
3880.1587,-0.011038
3882.0224,-0.011087
3883.8860,-0.010981
3885.7497,-0.011513
3887.6134,-0.011250
3889.4770,-0.010590
3891.3407,-0.010706
3893.2044,-0.010812
3895.0680,-0.010537
3896.9317,-0.010702
3898.7954,-0.011120
3900.6590,-0.011191
3902.5227,-0.010852
3904.3864,-0.010610
3906.2501,-0.010652
3908.1137,-0.010453
3909.9774,-0.010397
3911.8411,-0.010610
3913.7047,-0.010725
3915.5684,-0.010900
3917.4321,-0.010780
3919.2957,-0.010411
3921.1594,-0.010497
3923.0231,-0.010775
3924.8867,-0.011077
3926.7504,-0.011065
3928.6141,-0.010772
3930.4777,-0.010553
3932.3414,-0.010540
3934.2051,-0.010562
3936.0688,-0.010571
3937.9324,-0.010983
3939.7961,-0.011236
3941.6598,-0.010867
3943.5234,-0.010679
3945.3871,-0.010821
3947.2508,-0.010892
3949.1144,-0.010881
3950.9781,-0.010591
3952.8418,-0.010739
3954.7054,-0.010830
3956.5691,-0.010555
3958.4328,-0.010526
3960.2965,-0.010592
3962.1601,-0.010552
3964.0238,-0.010776
3965.8875,-0.010731
3967.7511,-0.010398
3969.6148,-0.010461
3971.4785,-0.010918
3973.3421,-0.011138
3975.2058,-0.010846
3977.0695,-0.010435
3978.9331,-0.010479
3980.7968,-0.010536
3982.6605,-0.010646
3984.5241,-0.010648
3986.3878,-0.010572
3988.2515,-0.010652
3990.1152,-0.010664
3991.9788,-0.010775
3993.8425,-0.010817
3995.7062,-0.010558
3997.5698,-0.010242
3999.4335,-0.010132
