Wavenumber,Intensity
650.4205,0.087047
652.2841,0.084586
654.1478,0.084225
656.0115,0.084679
657.8751,0.084683
659.7388,0.084208
661.6025,0.083152
663.4661,0.082085
665.3298,0.080727
667.1935,0.080724
669.0571,0.081301
670.9208,0.079843
672.7845,0.078838
674.6481,0.078286
676.5118,0.077684
678.3755,0.076282
680.2392,0.075854
682.1028,0.076551
683.9665,0.076574
685.8302,0.076494
687.6938,0.076760
689.5575,0.075743
691.4212,0.074296
693.2848,0.074604
695.1485,0.075314
697.0122,0.075450
698.8758,0.075107
700.7395,0.073943
702.6032,0.072817
704.4669,0.071896
706.3305,0.070445
708.1942,0.069376
710.0579,0.069005
711.9215,0.068565
713.7852,0.067761
715.6489,0.066812
717.5125,0.066113
719.3762,0.065770
721.2399,0.065360
723.1035,0.064997
724.9672,0.064143
726.8309,0.063078
728.6945,0.062504
730.5582,0.061972
732.4219,0.061408
734.2856,0.061381
736.1492,0.061633
738.0129,0.061337
739.8766,0.060927
741.7402,0.060931
743.6039,0.060415
745.4676,0.059785
747.3312,0.059236
749.1949,0.058551
751.0586,0.058272
752.9222,0.058204
754.7859,0.057818
756.6496,0.057418
758.5132,0.056985
760.3769,0.056463
762.2406,0.056129
764.1043,0.055868
765.9679,0.055457
767.8316,0.055038
769.6953,0.054803
771.5589,0.054744
773.4226,0.054270
775.2863,0.053794
777.1499,0.053676
779.0136,0.053309
780.8773,0.052509
782.7409,0.052208
784.6046,0.052201
786.4683,0.051704
788.3320,0.051092
790.1956,0.050557
792.0593,0.049996
793.9230,0.049905
795.7866,0.049827
797.6503,0.049412
799.5140,0.048897
801.3776,0.048728
803.2413,0.048983
805.1050,0.048963
806.9686,0.048418
808.8323,0.047909
810.6960,0.047819
812.5596,0.048004
814.4233,0.048116
816.2870,0.048097
818.1507,0.047716
820.0143,0.047237
821.8780,0.046702
823.7417,0.045852
825.6053,0.045088
827.4690,0.044642
829.3327,0.044161
831.1963,0.043700
833.0600,0.043221
834.9237,0.042857
836.7873,0.042649
838.6510,0.042258
840.5147,0.041624
842.3784,0.041138
844.2420,0.041087
846.1057,0.041106
847.9694,0.040793
849.8330,0.040551
851.6967,0.040508
853.5604,0.040614
855.4240,0.040699
857.2877,0.040646
859.1514,0.040544
861.0150,0.040615
862.8787,0.040910
864.7424,0.041163
866.6060,0.041195
868.4697,0.041172
870.3334,0.041310
872.1971,0.041495
874.0607,0.041389
875.9244,0.041329
877.7881,0.041352
879.6517,0.041214
881.5154,0.041001
883.3791,0.040710
885.2427,0.040323
887.1064,0.040096
888.9701,0.040196
890.8337,0.040277
892.6974,0.040323
894.5611,0.040415
896.4247,0.040345
898.2884,0.040129
900.1521,0.039931
902.0158,0.039851
903.8794,0.039651
905.7431,0.039523
907.6068,0.039684
909.4704,0.040090
911.3341,0.040456
913.1978,0.040664
915.0614,0.041083
916.9251,0.041581
918.7888,0.041816
920.6524,0.041857
922.5161,0.041924
924.3798,0.042201
926.2435,0.042311
928.1071,0.042267
929.9708,0.042348
931.8345,0.042419
933.6981,0.042473
935.5618,0.042636
937.4255,0.042859
939.2891,0.043026
941.1528,0.043306
943.0165,0.043605
944.8801,0.043785
946.7438,0.044067
948.6075,0.044258
950.4711,0.044374
952.3348,0.044468
954.1985,0.044598
956.0622,0.045075
957.9258,0.045837
959.7895,0.046641
961.6532,0.047593
963.5168,0.048611
965.3805,0.049378
967.2442,0.049905
969.1078,0.050173
970.9715,0.050087
972.8352,0.049957
974.6988,0.049792
976.5625,0.049728
978.4262,0.050063
980.2899,0.050579
982.1535,0.051038
984.0172,0.051539
985.8809,0.052129
987.7445,0.052710
989.6082,0.053338
991.4719,0.054043
993.3355,0.054921
995.1992,0.055984
997.0629,0.056954
998.9265,0.057889
1000.7902,0.058903
1002.6539,0.059942
1004.5175,0.060972
1006.3812,0.062254
1008.2449,0.063761
1010.1086,0.065522
1011.9722,0.067402
1013.8359,0.069273
1015.6996,0.071048
1017.5632,0.072642
1019.4269,0.074034
1021.2906,0.075115
1023.1542,0.075939
1025.0179,0.076637
1026.8816,0.077353
1028.7452,0.078145
1030.6089,0.078864
1032.4726,0.079359
1034.3362,0.079737
1036.1999,0.080071
1038.0636,0.080228
1039.9273,0.080204
1041.7909,0.080171
1043.6546,0.080162
1045.5183,0.080132
1047.3819,0.080109
1049.2456,0.080151
1051.1093,0.080204
1052.9729,0.080297
1054.8366,0.080477
1056.7003,0.080645
1058.5639,0.080671
1060.4276,0.080721
1062.2913,0.080813
1064.1550,0.080796
1066.0186,0.080836
1067.8823,0.080936
1069.7460,0.080969
1071.6096,0.080934
1073.4733,0.080661
1075.3370,0.079980
1077.2006,0.078960
1079.0643,0.077632
1080.9280,0.075959
1082.7916,0.074003
1084.6553,0.071874
1086.5190,0.069818
1088.3826,0.067821
1090.2463,0.065997
1092.1100,0.064545
1093.9737,0.063270
1095.8373,0.062039
1097.7010,0.060989
1099.5647,0.060162
1101.4283,0.059409
1103.2920,0.058744
1105.1557,0.058420
1107.0193,0.058212
1108.8830,0.058028
1110.7467,0.058003
1112.6103,0.058031
1114.4740,0.057964
1116.3377,0.057678
1118.2014,0.057232
1120.0650,0.056729
1121.9287,0.056173
1123.7924,0.055543
1125.6560,0.054822
1127.5197,0.054150
1129.3834,0.053521
1131.2470,0.052812
1133.1107,0.051945
1134.9744,0.051112
1136.8380,0.050383
1138.7017,0.049770
1140.5654,0.049263
1142.4290,0.048932
1144.2927,0.048794
1146.1564,0.048774
1148.0201,0.048912
1149.8837,0.049206
1151.7474,0.049397
1153.6111,0.049432
1155.4747,0.049410
1157.3384,0.049239
1159.2021,0.049046
1161.0657,0.048767
1162.9294,0.048416
1164.7931,0.047981
1166.6567,0.047276
1168.5204,0.046302
1170.3841,0.045233
1172.2477,0.043986
1174.1114,0.042608
1175.9751,0.041219
1177.8388,0.040013
1179.7024,0.039166
1181.5661,0.038583
1183.4298,0.038286
1185.2934,0.038285
1187.1571,0.038329
1189.0208,0.038569
1190.8844,0.039099
1192.7481,0.039655
1194.6118,0.040202
1196.4754,0.040873
1198.3391,0.041695
1200.2028,0.042590
1202.0665,0.043435
1203.9301,0.044187
1205.7938,0.044823
1207.6575,0.045386
1209.5211,0.045957
1211.3848,0.046616
1213.2485,0.047320
1215.1121,0.047987
1216.9758,0.048654
1218.8395,0.049380
1220.7031,0.050107
1222.5668,0.050798
1224.4305,0.051505
1226.2941,0.052152
1228.1578,0.052679
1230.0215,0.053116
1231.8852,0.053393
1233.7488,0.053632
1235.6125,0.053725
1237.4762,0.053654
1239.3398,0.053457
1241.2035,0.053128
1243.0672,0.052693
1244.9308,0.052204
1246.7945,0.051622
1248.6582,0.051041
1250.5218,0.050463
1252.3855,0.049912
1254.2492,0.049321
1256.1129,0.048749
1257.9765,0.048256
1259.8402,0.047771
1261.7039,0.047349
1263.5675,0.046934
1265.4312,0.046548
1267.2949,0.046228
1269.1585,0.046011
1271.0222,0.045802
1272.8859,0.045535
1274.7495,0.045301
1276.6132,0.045283
1278.4769,0.045306
1280.3405,0.045239
1282.2042,0.045094
1284.0679,0.044881
1285.9316,0.044923
1287.7952,0.045000
1289.6589,0.044986
1291.5226,0.045046
1293.3862,0.045081
1295.2499,0.045216
1297.1136,0.045503
1298.9772,0.045701
1300.8409,0.045911
1302.7046,0.046121
1304.5682,0.046306
1306.4319,0.046466
1308.2956,0.046689
1310.1592,0.046845
1312.0229,0.047015
1313.8866,0.047089
1315.7503,0.046854
1317.6139,0.046681
1319.4776,0.046574
1321.3413,0.046186
1323.2049,0.045636
1325.0686,0.045255
1326.9323,0.045158
1328.7959,0.045058
1330.6596,0.044954
1332.5233,0.044903
1334.3869,0.044712
1336.2506,0.044661
1338.1143,0.045056
1339.9780,0.045552
1341.8416,0.045461
1343.7053,0.045152
1345.5690,0.044964
1347.4326,0.044947
1349.2963,0.045044
1351.1600,0.045078
1353.0236,0.045222
1354.8873,0.045524
1356.7510,0.045715
1358.6146,0.045892
1360.4783,0.046653
1362.3420,0.048241
1364.2056,0.049395
1366.0693,0.049835
1367.9330,0.050715
1369.7967,0.051456
1371.6603,0.052054
1373.5240,0.053425
1375.3877,0.054712
1377.2513,0.055103
1379.1150,0.055357
1380.9787,0.055499
1382.8423,0.055529
1384.7060,0.055534
1386.5697,0.056201
1388.4333,0.056869
1390.2970,0.056264
1392.1607,0.055711
1394.0244,0.056117
1395.8880,0.056692
1397.7517,0.056652
1399.6154,0.056716
1401.4790,0.056090
1403.3427,0.055543
1405.2064,0.055386
1407.0700,0.054659
1408.9337,0.053790
1410.7974,0.053210
1412.6610,0.052511
1414.5247,0.051600
1416.3884,0.051006
1418.2520,0.051481
1420.1157,0.051901
1421.9794,0.050944
1423.8431,0.050694
1425.7067,0.050592
1427.5704,0.050390
1429.4341,0.051209
1431.2977,0.051821
1433.1614,0.051815
1435.0251,0.052778
1436.8887,0.055378
1438.7524,0.055792
1440.6161,0.055050
1442.4797,0.055145
1444.3434,0.055214
1446.2071,0.055514
1448.0707,0.055918
1449.9344,0.055470
1451.7981,0.054197
1453.6618,0.053041
1455.5254,0.053084
1457.3891,0.054839
1459.2528,0.053368
1461.1164,0.050884
1462.9801,0.049781
1464.8438,0.050045
1466.7074,0.049104
1468.5711,0.047128
1470.4348,0.045738
1472.2984,0.045931
1474.1621,0.045681
1476.0258,0.044767
1477.8895,0.044061
1479.7531,0.043947
1481.6168,0.044539
1483.4805,0.044855
1485.3441,0.045336
1487.2078,0.047153
1489.0715,0.050243
1490.9351,0.052688
1492.7988,0.053005
1494.6625,0.054166
1496.5261,0.058135
1498.3898,0.061369
1500.2535,0.062426
1502.1171,0.062391
1503.9808,0.062939
1505.8445,0.068462
1507.7082,0.076025
1509.5718,0.075960
1511.4355,0.075809
1513.2992,0.076663
1515.1628,0.077683
1517.0265,0.079072
1518.8902,0.079255
1520.7538,0.080402
1522.6175,0.082502
1524.4812,0.082450
1526.3448,0.082938
1528.2085,0.083184
1530.0722,0.082894
1531.9359,0.082999
1533.7995,0.084061
1535.6632,0.082862
1537.5269,0.080983
1539.3905,0.082157
1541.2542,0.084224
1543.1179,0.082837
1544.9815,0.081192
1546.8452,0.079044
1548.7089,0.076848
1550.5725,0.074990
1552.4362,0.072737
1554.2999,0.070355
1556.1635,0.068249
1558.0272,0.067627
1559.8909,0.067886
1561.7546,0.064416
1563.6182,0.061542
1565.4819,0.059696
1567.3456,0.058284
1569.2092,0.057261
1571.0729,0.055809
1572.9366,0.053860
1574.8002,0.053255
1576.6639,0.053696
1578.5276,0.052548
1580.3912,0.051348
1582.2549,0.050957
1584.1186,0.050767
1585.9822,0.050853
1587.8459,0.051230
1589.7096,0.051948
1591.5733,0.052742
1593.4369,0.053831
1595.3006,0.055379
1597.1643,0.056909
1599.0279,0.058233
1600.8916,0.060014
1602.7553,0.062405
1604.6189,0.064950
1606.4826,0.067387
1608.3463,0.070234
1610.2099,0.073057
1612.0736,0.075126
1613.9373,0.076916
1615.8010,0.080549
1617.6646,0.084736
1619.5283,0.085647
1621.3920,0.086387
1623.2556,0.088981
1625.1193,0.091245
1626.9830,0.092427
1628.8466,0.093330
1630.7103,0.092943
1632.5740,0.092233
1634.4376,0.092440
1636.3013,0.093215
1638.1650,0.091898
1640.0286,0.089825
1641.8923,0.087984
1643.7560,0.086098
1645.6197,0.084857
1647.4833,0.083711
1649.3470,0.081326
1651.2107,0.078535
1653.0743,0.077865
1654.9380,0.076087
1656.8017,0.072446
1658.6653,0.069081
1660.5290,0.066274
1662.3927,0.063776
1664.2563,0.061297
1666.1200,0.058429
1667.9837,0.055770
1669.8474,0.053400
1671.7110,0.051103
1673.5747,0.048597
1675.4384,0.046263
1677.3020,0.043737
1679.1657,0.041198
1681.0294,0.038730
1682.8930,0.036415
1684.7567,0.033996
1686.6204,0.031361
1688.4840,0.028709
1690.3477,0.026086
1692.2114,0.023388
1694.0750,0.020681
1695.9387,0.018006
1697.8024,0.015674
1699.6661,0.013380
1701.5297,0.012001
1703.3934,0.010540
1705.2571,0.009097
1707.1207,0.008334
1708.9844,0.007591
1710.8481,0.006698
1712.7117,0.006104
1714.5754,0.005535
1716.4391,0.005062
1718.3027,0.004932
1720.1664,0.004687
1722.0301,0.004184
1723.8937,0.003955
1725.7574,0.003757
1727.6211,0.003385
1729.4848,0.003197
1731.3484,0.003251
1733.2121,0.003155
1735.0758,0.003789
1736.9394,0.003833
1738.8031,0.003624
1740.6668,0.003718
1742.5304,0.003612
1744.3941,0.003342
1746.2578,0.003018
1748.1214,0.002536
1749.9851,0.002106
1751.8488,0.001662
1753.7125,0.001130
1755.5761,0.000448
1757.4398,0.000011
1759.3035,-0.000308
1761.1671,-0.000795
1763.0308,-0.001075
1764.8945,-0.001114
1766.7581,-0.001217
1768.6218,-0.001124
1770.4855,-0.001342
1772.3491,-0.001288
1774.2128,-0.001072
1776.0765,-0.001079
1777.9401,-0.001213
1779.8038,-0.001356
1781.6675,-0.001331
1783.5312,-0.001363
1785.3948,-0.001357
1787.2585,-0.001346
1789.1222,-0.001659
1790.9858,-0.001851
1792.8495,-0.001498
1794.7132,-0.001289
1796.5768,-0.001506
1798.4405,-0.001726
1800.3042,-0.001731
1802.1678,-0.001498
1804.0315,-0.001432
1805.8952,-0.001428
1807.7589,-0.001442
1809.6225,-0.001573
1811.4862,-0.001689
1813.3499,-0.001622
1815.2135,-0.001616
1817.0772,-0.001645
1818.9409,-0.001443
1820.8045,-0.001152
1822.6682,-0.001305
1824.5319,-0.001578
1826.3955,-0.001457
1828.2592,-0.001489
1830.1229,-0.001217
1831.9865,-0.000786
1833.8502,-0.000934
1835.7139,-0.001237
1837.5776,-0.001430
1839.4412,-0.001387
1841.3049,-0.001352
1843.1686,-0.001081
1845.0322,-0.000581
1846.8959,-0.000452
1848.7596,-0.000653
1850.6232,-0.001008
1852.4869,-0.001274
1854.3506,-0.001123
1856.2142,-0.001105
1858.0779,-0.000914
1859.9416,-0.000678
1861.8052,-0.000761
1863.6689,-0.001044
1865.5326,-0.001055
1867.3963,-0.000852
1869.2599,-0.000566
1871.1236,-0.000480
1872.9873,-0.000616
1874.8509,-0.000452
1876.7146,-0.000333
1878.5783,-0.000603
1880.4419,-0.000613
1882.3056,-0.000638
1884.1693,-0.000908
1886.0329,-0.000878
1887.8966,-0.000549
1889.7603,-0.000344
1891.6240,-0.000200
1893.4876,-0.000096
1895.3513,0.000043
1897.2150,0.000118
1899.0786,0.000127
1900.9423,-0.000003
1902.8060,-0.000083
1904.6696,0.000244
1906.5333,0.000227
1908.3970,-0.000506
1910.2606,-0.000715
1912.1243,-0.000227
1913.9880,-0.000046
1915.8516,-0.000438
1917.7153,-0.000487
1919.5790,0.000141
1921.4427,0.000484
1923.3063,0.000511
1925.1700,0.000703
1927.0337,0.000437
1928.8973,-0.000219
1930.7610,-0.000752
1932.6247,-0.000356
1934.4883,0.000201
1936.3520,0.000074
1938.2157,0.000173
1940.0793,0.000451
1941.9430,0.000411
1943.8067,0.000460
1945.6704,0.000786
1947.5340,0.001239
1949.3977,0.001246
1951.2614,0.000939
1953.1250,0.001142
1954.9887,0.001192
1956.8524,0.000836
1958.7160,0.000825
1960.5797,0.000870
1962.4434,0.001173
1964.3070,0.001739
1966.1707,0.001544
1968.0344,0.001603
1969.8980,0.002351
1971.7617,0.002360
1973.6254,0.002389
1975.4891,0.003355
1977.3527,0.004497
1979.2164,0.004592
1981.0801,0.004673
1982.9437,0.004136
1984.8074,0.002948
1986.6711,0.002581
1988.5347,0.002852
1990.3984,0.002693
1992.2621,0.002706
1994.1257,0.003004
1995.9894,0.002364
1997.8531,0.002472
1999.7167,0.003224
2001.5804,0.002547
2003.4441,0.001855
2005.3078,0.002618
2007.1714,0.003705
2009.0351,0.003181
2010.8988,0.002195
2012.7624,0.002488
2014.6261,0.003420
2016.4898,0.003600
2018.3534,0.003262
2020.2171,0.003777
2022.0808,0.003870
2023.9444,0.002933
2025.8081,0.002893
2027.6718,0.003554
2029.5355,0.004545
2031.3991,0.005140
2033.2628,0.004431
2035.1265,0.004343
2036.9901,0.005134
2038.8538,0.005059
2040.7175,0.004153
2042.5811,0.004541
2044.4448,0.005803
2046.3085,0.006137
2048.1721,0.005865
2050.0358,0.005242
2051.8995,0.004342
2053.7631,0.004151
2055.6268,0.004596
2057.4905,0.004543
2059.3542,0.004288
2061.2178,0.004505
2063.0815,0.005072
2064.9452,0.004744
2066.8088,0.004077
2068.6725,0.004479
2070.5362,0.004691
2072.3998,0.004621
2074.2635,0.005156
2076.1272,0.005090
2077.9908,0.004313
2079.8545,0.004413
2081.7182,0.004776
2083.5819,0.004108
2085.4455,0.003274
2087.3092,0.003471
2089.1729,0.003702
2091.0365,0.003467
2092.9002,0.003106
2094.7639,0.002828
2096.6275,0.002964
2098.4912,0.003426
2100.3549,0.003514
2102.2185,0.003105
2104.0822,0.002937
2105.9459,0.003188
2107.8095,0.003414
2109.6732,0.003477
2111.5369,0.003312
2113.4006,0.003355
2115.2642,0.003781
2117.1279,0.003522
2118.9916,0.002979
2120.8552,0.003069
2122.7189,0.002987
2124.5826,0.002456
2126.4462,0.001854
2128.3099,0.001336
2130.1736,0.001441
2132.0372,0.002048
2133.9009,0.001709
2135.7646,0.001818
2137.6282,0.003427
2139.4919,0.003770
2141.3556,0.002497
2143.2193,0.002068
2145.0829,0.001720
2146.9466,0.001520
2148.8103,0.002612
2150.6739,0.003889
2152.5376,0.003447
2154.4013,0.003085
2156.2649,0.004536
2158.1286,0.005673
2159.9923,0.005930
2161.8559,0.006260
2163.7196,0.006451
2165.5833,0.006857
2167.4470,0.007207
2169.3106,0.006444
2171.1743,0.005145
2173.0380,0.004957
2174.9016,0.004750
2176.7653,0.004798
2178.6290,0.005034
2180.4926,0.005018
2182.3563,0.006204
2184.2200,0.006490
2186.0836,0.005475
2187.9473,0.005239
2189.8110,0.004955
2191.6746,0.004703
2193.5383,0.005433
2195.4020,0.006220
2197.2657,0.005530
2199.1293,0.004376
2200.9930,0.004039
2202.8567,0.004638
2204.7203,0.005171
2206.5840,0.005046
2208.4477,0.004389
2210.3113,0.004065
2212.1750,0.004295
2214.0387,0.004396
2215.9023,0.004917
2217.7660,0.005310
2219.6297,0.004693
2221.4934,0.004617
2223.3570,0.004567
2225.2207,0.004176
2227.0844,0.004229
2228.9480,0.004441
2230.8117,0.004490
2232.6754,0.004333
2234.5390,0.004069
2236.4027,0.003920
2238.2664,0.004497
2240.1300,0.004612
2241.9937,0.004376
2243.8574,0.004160
2245.7210,0.004106
2247.5847,0.004273
2249.4484,0.003819
2251.3121,0.003664
2253.1757,0.003670
2255.0394,0.004102
2256.9031,0.004731
2258.7667,0.004632
2260.6304,0.004416
2262.4941,0.004223
2264.3577,0.003767
2266.2214,0.003634
2268.0851,0.003913
2269.9487,0.004215
2271.8124,0.004096
2273.6761,0.004254
2275.5397,0.004617
2277.4034,0.004738
2279.2671,0.004669
2281.1308,0.004740
2282.9944,0.004853
2284.8581,0.004757
2286.7218,0.004632
2288.5854,0.004479
2290.4491,0.004196
2292.3128,0.003871
2294.1764,0.003671
2296.0401,0.003696
2297.9038,0.003516
2299.7674,0.003292
2301.6311,0.003316
2303.4948,0.003288
2305.3585,0.002777
2307.2221,0.002727
2309.0858,0.003391
2310.9495,0.003817
2312.8131,0.003446
2314.6768,0.003077
2316.5405,0.003499
2318.4041,0.003914
2320.2678,0.003856
2322.1315,0.004202
2323.9951,0.004724
2325.8588,0.003951
2327.7225,0.002519
2329.5861,0.002016
2331.4498,0.002141
2333.3135,0.002319
2335.1772,0.002362
2337.0408,0.002633
2338.9045,0.003073
2340.7682,0.003311
2342.6318,0.003245
2344.4955,0.003053
2346.3592,0.002537
2348.2228,0.002049
2350.0865,0.001696
2351.9502,0.001982
2353.8138,0.002236
2355.6775,0.001895
2357.5412,0.002223
2359.4049,0.002903
2361.2685,0.002937
2363.1322,0.002996
2364.9959,0.003555
2366.8595,0.003572
2368.7232,0.003440
2370.5869,0.003258
2372.4505,0.003153
2374.3142,0.003226
2376.1779,0.003371
2378.0415,0.003306
2379.9052,0.003053
2381.7689,0.002868
2383.6325,0.002927
2385.4962,0.002929
2387.3599,0.002639
2389.2236,0.002442
2391.0872,0.002537
2392.9509,0.002555
2394.8146,0.002638
2396.6782,0.002676
2398.5419,0.002803
2400.4056,0.002886
2402.2692,0.002958
2404.1329,0.002952
2405.9966,0.002831
2407.8602,0.002977
2409.7239,0.002912
2411.5876,0.002607
2413.4512,0.002898
2415.3149,0.003366
2417.1786,0.003246
2419.0423,0.003095
2420.9059,0.003159
2422.7696,0.003397
2424.6333,0.003567
2426.4969,0.003519
2428.3606,0.003577
2430.2243,0.003365
2432.0879,0.003254
2433.9516,0.003532
2435.8153,0.003666
2437.6789,0.003510
2439.5426,0.003402
2441.4063,0.003807
2443.2700,0.003963
2445.1336,0.003547
2446.9973,0.003755
2448.8610,0.004211
2450.7246,0.004188
2452.5883,0.004146
2454.4520,0.004211
2456.3156,0.004213
2458.1793,0.004290
2460.0430,0.003985
2461.9066,0.003851
2463.7703,0.003957
2465.6340,0.003764
2467.4976,0.003660
2469.3613,0.003980
2471.2250,0.004066
2473.0887,0.003919
2474.9523,0.004030
2476.8160,0.004304
2478.6797,0.004354
2480.5433,0.004264
2482.4070,0.004380
2484.2707,0.004457
2486.1343,0.004679
2487.9980,0.004678
2489.8617,0.004679
2491.7253,0.004989
2493.5890,0.004973
2495.4527,0.004963
2497.3164,0.005026
2499.1800,0.004699
2501.0437,0.004258
2502.9074,0.004087
2504.7710,0.004650
2506.6347,0.004987
2508.4984,0.005023
2510.3620,0.005002
2512.2257,0.004847
2514.0894,0.004882
2515.9530,0.005065
2517.8167,0.005000
2519.6804,0.005038
2521.5440,0.005207
2523.4077,0.005077
2525.2714,0.005111
2527.1351,0.005170
2528.9987,0.005296
2530.8624,0.005355
2532.7261,0.005254
2534.5897,0.005218
2536.4534,0.005383
2538.3171,0.005281
2540.1807,0.005127
2542.0444,0.004987
2543.9081,0.005193
2545.7717,0.005404
2547.6354,0.005478
2549.4991,0.005850
2551.3627,0.005867
2553.2264,0.005375
2555.0901,0.005291
2556.9538,0.005693
2558.8174,0.005859
2560.6811,0.006078
2562.5448,0.006273
2564.4084,0.006178
2566.2721,0.006035
2568.1358,0.005867
2569.9994,0.006054
2571.8631,0.006171
2573.7268,0.006101
2575.5904,0.006299
2577.4541,0.006466
2579.3178,0.006466
2581.1815,0.006529
2583.0451,0.006658
2584.9088,0.006693
2586.7725,0.006949
2588.6361,0.006998
2590.4998,0.006668
2592.3635,0.006683
2594.2271,0.006804
2596.0908,0.006764
2597.9545,0.006546
2599.8181,0.006550
2601.6818,0.006985
2603.5455,0.007307
2605.4091,0.007526
2607.2728,0.007513
2609.1365,0.007590
2611.0002,0.007725
2612.8638,0.007487
2614.7275,0.007406
2616.5912,0.007729
2618.4548,0.008055
2620.3185,0.007967
2622.1822,0.007924
2624.0458,0.008041
2625.9095,0.007943
2627.7732,0.007952
2629.6368,0.008235
2631.5005,0.008394
2633.3642,0.008335
2635.2279,0.008198
2637.0915,0.008204
2638.9552,0.008523
2640.8189,0.008669
2642.6825,0.008705
2644.5462,0.008746
2646.4099,0.008784
2648.2735,0.008720
2650.1372,0.008697
2652.0009,0.008698
2653.8645,0.008754
2655.7282,0.008816
2657.5919,0.008789
2659.4555,0.008821
2661.3192,0.008757
2663.1829,0.008637
2665.0466,0.008655
2666.9102,0.008755
2668.7739,0.008658
2670.6376,0.008632
2672.5012,0.008707
2674.3649,0.008723
2676.2286,0.008854
2678.0922,0.009049
2679.9559,0.009064
2681.8196,0.009160
2683.6832,0.009378
2685.5469,0.009387
2687.4106,0.009404
2689.2742,0.009521
2691.1379,0.009380
2693.0016,0.009430
2694.8653,0.009724
2696.7289,0.009716
2698.5926,0.009694
2700.4563,0.009770
2702.3199,0.009884
2704.1836,0.009971
2706.0473,0.010037
2707.9109,0.010375
2709.7746,0.010542
2711.6383,0.010371
2713.5019,0.010338
2715.3656,0.010550
2717.2293,0.010741
2719.0930,0.010921
2720.9566,0.011026
2722.8203,0.011005
2724.6840,0.011033
2726.5476,0.011161
2728.4113,0.011211
2730.2750,0.011387
2732.1386,0.011520
2734.0023,0.011578
2735.8660,0.011756
2737.7296,0.012073
2739.5933,0.012284
2741.4570,0.012189
2743.3206,0.012220
2745.1843,0.012507
2747.0480,0.012710
2748.9117,0.012614
2750.7753,0.012594
2752.6390,0.012839
2754.5027,0.013124
2756.3663,0.013273
2758.2300,0.013374
2760.0937,0.013187
2761.9573,0.013103
2763.8210,0.013249
2765.6847,0.013642
2767.5483,0.013793
2769.4120,0.013699
2771.2757,0.013851
2773.1394,0.014141
2775.0030,0.014212
2776.8667,0.014311
2778.7304,0.014459
2780.5940,0.014650
2782.4577,0.014674
2784.3214,0.014795
2786.1850,0.015136
2788.0487,0.015355
2789.9124,0.015479
2791.7760,0.015772
2793.6397,0.015923
2795.5034,0.015839
2797.3670,0.015816
2799.2307,0.016044
2801.0944,0.016313
2802.9581,0.016471
2804.8217,0.016684
2806.6854,0.017070
2808.5491,0.017212
2810.4127,0.017042
2812.2764,0.017171
2814.1401,0.017524
2816.0037,0.017738
2817.8674,0.018011
2819.7311,0.018329
2821.5947,0.018495
2823.4584,0.018659
2825.3221,0.018757
2827.1857,0.018880
2829.0494,0.019291
2830.9131,0.019653
2832.7768,0.019919
2834.6404,0.020385
2836.5041,0.020912
2838.3678,0.021158
2840.2314,0.021409
2842.0951,0.021980
2843.9588,0.022637
2845.8224,0.023405
2847.6861,0.024542
2849.5498,0.025353
2851.4134,0.025618
2853.2771,0.025713
2855.1408,0.025798
2857.0045,0.025645
2858.8681,0.025205
2860.7318,0.025087
2862.5955,0.025280
2864.4591,0.025562
2866.3228,0.025895
2868.1865,0.026180
2870.0501,0.026362
2871.9138,0.026495
2873.7775,0.026491
2875.6411,0.026537
2877.5048,0.026721
2879.3685,0.026755
2881.2321,0.026570
2883.0958,0.026306
2884.9595,0.026356
2886.8232,0.026434
2888.6868,0.026460
2890.5505,0.026796
2892.4142,0.027320
2894.2778,0.027637
2896.1415,0.027829
2898.0052,0.028006
2899.8688,0.028287
2901.7325,0.028726
2903.5962,0.029322
2905.4598,0.029630
2907.3235,0.030000
2909.1872,0.030517
2911.0509,0.031234
2912.9145,0.032021
2914.7782,0.032685
2916.6419,0.033198
2918.5055,0.033781
2920.3692,0.034103
2922.2329,0.034283
2924.0965,0.034334
2925.9602,0.034217
2927.8239,0.033924
2929.6875,0.033630
2931.5512,0.033423
2933.4149,0.032987
2935.2785,0.032410
2937.1422,0.031728
2939.0059,0.031291
2940.8696,0.031037
2942.7332,0.030591
2944.5969,0.030308
2946.4606,0.030161
2948.3242,0.029943
2950.1879,0.029956
2952.0516,0.030289
2953.9152,0.030643
2955.7789,0.030762
2957.6426,0.030419
2959.5062,0.030280
2961.3699,0.030147
2963.2336,0.029855
2965.0972,0.029401
2966.9609,0.028946
2968.8246,0.028637
2970.6883,0.028348
2972.5519,0.027749
2974.4156,0.027105
2976.2793,0.026677
2978.1429,0.026509
2980.0066,0.026307
2981.8703,0.026025
2983.7339,0.025495
2985.5976,0.025101
2987.4613,0.024902
2989.3249,0.024742
2991.1886,0.024535
2993.0523,0.024370
2994.9160,0.024388
2996.7796,0.024397
2998.6433,0.024473
3000.5070,0.024595
3002.3706,0.024609
3004.2343,0.024788
3006.0980,0.024941
3007.9616,0.024948
3009.8253,0.024879
3011.6890,0.024953
3013.5526,0.025360
3015.4163,0.025861
3017.2800,0.025994
3019.1436,0.026036
3021.0073,0.026067
3022.8710,0.026293
3024.7347,0.026813
3026.5983,0.027126
3028.4620,0.027367
3030.3257,0.027651
3032.1893,0.027787
3034.0530,0.028033
3035.9167,0.028011
3037.7803,0.028219
3039.6440,0.029065
3041.5077,0.029387
3043.3713,0.029115
3045.2350,0.029307
3047.0987,0.029714
3048.9624,0.030146
3050.8260,0.030437
3052.6897,0.030553
3054.5534,0.030559
3056.4170,0.030971
3058.2807,0.031137
3060.1444,0.031116
3062.0080,0.031309
3063.8717,0.031571
3065.7354,0.031789
3067.5990,0.031820
3069.4627,0.031616
3071.3264,0.031761
3073.1900,0.032066
3075.0537,0.032292
3076.9174,0.032377
3078.7811,0.032298
3080.6447,0.032146
3082.5084,0.032033
3084.3721,0.031715
3086.2357,0.031760
3088.0994,0.032084
3089.9631,0.032057
3091.8267,0.031896
3093.6904,0.031870
3095.5541,0.031895
3097.4177,0.031969
3099.2814,0.031965
3101.1451,0.032134
3103.0087,0.032153
3104.8724,0.032086
3106.7361,0.032199
3108.5998,0.032211
3110.4634,0.032180
3112.3271,0.032627
3114.1908,0.032802
3116.0544,0.032658
3117.9181,0.032549
3119.7818,0.032499
3121.6454,0.032608
3123.5091,0.032904
3125.3728,0.033280
3127.2364,0.033458
3129.1001,0.033693
3130.9638,0.034130
3132.8275,0.034222
3134.6911,0.034487
3136.5548,0.034793
3138.4185,0.035093
3140.2821,0.035305
3142.1458,0.035627
3144.0095,0.036086
3145.8731,0.036301
3147.7368,0.036208
3149.6005,0.036423
3151.4641,0.037257
3153.3278,0.037887
3155.1915,0.038157
3157.0551,0.038338
3158.9188,0.038329
3160.7825,0.038521
3162.6462,0.038524
3164.5098,0.038904
3166.3735,0.039664
3168.2372,0.040151
3170.1008,0.040314
3171.9645,0.040511
3173.8282,0.040594
3175.6918,0.041046
3177.5555,0.041512
3179.4192,0.041855
3181.2828,0.042019
3183.1465,0.042426
3185.0102,0.042843
3186.8739,0.043158
3188.7375,0.043231
3190.6012,0.043067
3192.4649,0.043059
3194.3285,0.043504
3196.1922,0.043856
3198.0559,0.044078
3199.9195,0.044375
3201.7832,0.044641
3203.6469,0.044631
3205.5105,0.045039
3207.3742,0.045451
3209.2379,0.045528
3211.1015,0.045266
3212.9652,0.045400
3214.8289,0.045939
3216.6926,0.045966
3218.5562,0.045776
3220.4199,0.045743
3222.2836,0.045849
3224.1472,0.046208
3226.0109,0.046548
3227.8746,0.046740
3229.7382,0.047185
3231.6019,0.047599
3233.4656,0.047169
3235.3292,0.047080
3237.1929,0.047498
3239.0566,0.047951
3240.9202,0.048441
3242.7839,0.048598
3244.6476,0.048422
3246.5113,0.048455
3248.3749,0.048718
3250.2386,0.048976
3252.1023,0.049285
3253.9659,0.049918
3255.8296,0.050027
3257.6933,0.049909
3259.5569,0.050004
3261.4206,0.049944
3263.2843,0.050272
3265.1479,0.050611
3267.0116,0.050489
3268.8753,0.050642
3270.7390,0.050666
3272.6026,0.050683
3274.4663,0.050588
3276.3300,0.050574
3278.1936,0.050418
3280.0573,0.050113
3281.9210,0.050021
3283.7846,0.050027
3285.6483,0.049839
3287.5120,0.049745
3289.3756,0.049855
3291.2393,0.049512
3293.1030,0.049048
3294.9666,0.048536
3296.8303,0.047907
3298.6940,0.047733
3300.5577,0.047729
3302.4213,0.047702
3304.2850,0.047238
3306.1487,0.046594
3308.0123,0.046298
3309.8760,0.045968
3311.7397,0.045713
3313.6033,0.045715
3315.4670,0.045462
3317.3307,0.045099
3319.1943,0.044925
3321.0580,0.044572
3322.9217,0.044029
3324.7854,0.043877
3326.6490,0.043806
3328.5127,0.043177
3330.3764,0.042426
3332.2400,0.042593
3334.1037,0.043099
3335.9674,0.042834
3337.8310,0.042291
3339.6947,0.042144
3341.5584,0.041989
3343.4220,0.041927
3345.2857,0.041683
3347.1494,0.041286
3349.0130,0.041000
3350.8767,0.040642
3352.7404,0.040464
3354.6041,0.040013
3356.4677,0.039593
3358.3314,0.039836
3360.1951,0.039988
3362.0587,0.039882
3363.9224,0.039358
3365.7861,0.038599
3367.6497,0.038407
3369.5134,0.038332
3371.3771,0.038081
3373.2407,0.038158
3375.1044,0.038539
3376.9681,0.038866
3378.8317,0.038392
3380.6954,0.037469
3382.5591,0.036909
3384.4228,0.036694
3386.2864,0.036587
3388.1501,0.036442
3390.0138,0.036147
3391.8774,0.036072
3393.7411,0.036379
3395.6048,0.036441
3397.4684,0.036054
3399.3321,0.035585
3401.1958,0.035485
3403.0594,0.035637
3404.9231,0.035080
3406.7868,0.034032
3408.6505,0.033482
3410.5141,0.033690
3412.3778,0.033901
3414.2415,0.033692
3416.1051,0.033678
3417.9688,0.033213
3419.8325,0.033080
3421.6961,0.033316
3423.5598,0.032691
3425.4235,0.032201
3427.2871,0.032214
3429.1508,0.031618
3431.0145,0.030711
3432.8781,0.030565
3434.7418,0.030965
3436.6055,0.030943
3438.4692,0.030512
3440.3328,0.030184
3442.1965,0.030171
3444.0602,0.029898
3445.9238,0.028935
3447.7875,0.028687
3449.6512,0.029055
3451.5148,0.028932
3453.3785,0.028824
3455.2422,0.028078
3457.1058,0.026934
3458.9695,0.026660
3460.8332,0.026748
3462.6969,0.026398
3464.5605,0.026548
3466.4242,0.026670
3468.2879,0.025777
3470.1515,0.024999
3472.0152,0.024865
3473.8789,0.024953
3475.7425,0.024630
3477.6062,0.023885
3479.4699,0.023603
3481.3335,0.023784
3483.1972,0.023494
3485.0609,0.022957
3486.9245,0.023198
3488.7882,0.023179
3490.6519,0.022063
3492.5156,0.021013
3494.3792,0.020822
3496.2429,0.020856
3498.1066,0.020987
3499.9702,0.020831
3501.8339,0.020216
3503.6976,0.019441
3505.5612,0.018898
3507.4249,0.018658
3509.2886,0.018502
3511.1522,0.018382
3513.0159,0.018126
3514.8796,0.017510
3516.7432,0.016950
3518.6069,0.017125
3520.4706,0.017413
3522.3343,0.016917
3524.1979,0.016037
3526.0616,0.015725
3527.9253,0.015815
3529.7889,0.015421
3531.6526,0.014814
3533.5163,0.014084
3535.3799,0.013977
3537.2436,0.014497
3539.1073,0.014115
3540.9709,0.012804
3542.8346,0.011890
3544.6983,0.011660
3546.5620,0.011764
3548.4256,0.011931
3550.2893,0.011233
3552.1530,0.010268
3554.0166,0.010149
3555.8803,0.010127
3557.7440,0.009850
3559.6076,0.009745
3561.4713,0.009320
3563.3350,0.008224
3565.1986,0.007438
3567.0623,0.007378
3568.9260,0.007860
3570.7896,0.007996
3572.6533,0.007521
3574.5170,0.006692
3576.3807,0.006079
3578.2443,0.005709
3580.1080,0.005534
3581.9717,0.005315
3583.8353,0.004727
3585.6990,0.003920
3587.5627,0.003611
3589.4263,0.003798
3591.2900,0.003618
3593.1537,0.003196
3595.0173,0.002756
3596.8810,0.002207
3598.7447,0.001465
3600.6084,0.001267
3602.4720,0.001437
3604.3357,0.001591
3606.1994,0.001372
3608.0630,0.000456
3609.9267,-0.000018
3611.7904,0.000183
3613.6540,-0.000087
3615.5177,-0.000252
3617.3814,-0.000394
3619.2450,-0.000671
3621.1087,-0.000662
3622.9724,-0.000961
3624.8360,-0.001417
3626.6997,-0.002136
3628.5634,-0.003152
3630.4271,-0.002629
3632.2907,-0.001874
3634.1544,-0.002358
3636.0181,-0.002901
3637.8817,-0.003088
3639.7454,-0.003408
3641.6091,-0.003822
3643.4727,-0.003777
3645.3364,-0.003773
3647.2001,-0.004825
3649.0637,-0.005569
3650.9274,-0.005489
3652.7911,-0.005397
3654.6547,-0.005421
3656.5184,-0.005365
3658.3821,-0.005182
3660.2458,-0.005505
3662.1094,-0.006016
3663.9731,-0.005923
3665.8368,-0.005814
3667.7004,-0.006276
3669.5641,-0.006956
3671.4278,-0.006598
3673.2914,-0.006092
3675.1551,-0.006658
3677.0188,-0.006444
3678.8824,-0.005683
3680.7461,-0.006253
3682.6098,-0.006902
3684.4735,-0.006933
3686.3371,-0.006816
3688.2008,-0.007302
3690.0645,-0.007702
3691.9281,-0.007773
3693.7918,-0.007717
3695.6555,-0.007590
3697.5191,-0.007244
3699.3828,-0.007062
3701.2465,-0.007337
3703.1101,-0.007477
3704.9738,-0.007617
3706.8375,-0.007770
3708.7011,-0.007732
3710.5648,-0.007984
3712.4285,-0.007890
3714.2922,-0.007250
3716.1558,-0.007112
3718.0195,-0.007367
3719.8832,-0.007695
3721.7468,-0.008222
3723.6105,-0.008049
3725.4742,-0.007783
3727.3378,-0.007523
3729.2015,-0.006955
3731.0652,-0.007184
3732.9288,-0.007887
3734.7925,-0.007504
3736.6562,-0.007133
3738.5199,-0.007103
3740.3835,-0.007349
3742.2472,-0.008153
3744.1109,-0.008774
3745.9745,-0.008346
3747.8382,-0.007449
3749.7019,-0.007967
3751.5655,-0.007943
3753.4292,-0.007484
3755.2929,-0.007320
3757.1565,-0.007407
3759.0202,-0.007452
3760.8839,-0.006920
3762.7475,-0.006941
3764.6112,-0.007596
3766.4749,-0.007896
3768.3386,-0.007195
3770.2022,-0.007227
3772.0659,-0.007337
3773.9296,-0.007251
3775.7932,-0.007344
3777.6569,-0.007335
3779.5206,-0.007268
3781.3842,-0.007091
3783.2479,-0.007169
3785.1116,-0.007641
3786.9752,-0.007803
3788.8389,-0.007728
3790.7026,-0.007486
3792.5662,-0.007301
3794.4299,-0.007551
3796.2936,-0.007881
3798.1573,-0.007551
3800.0209,-0.007628
3801.8846,-0.008033
3803.7483,-0.007583
3805.6119,-0.007537
3807.4756,-0.007892
3809.3393,-0.007299
3811.2029,-0.007260
3813.0666,-0.007836
3814.9303,-0.008008
3816.7939,-0.008061
3818.6576,-0.007399
3820.5213,-0.007274
3822.3850,-0.007411
3824.2486,-0.007224
3826.1123,-0.007567
3827.9760,-0.007594
3829.8396,-0.007283
3831.7033,-0.007373
3833.5670,-0.007710
3835.4306,-0.007563
3837.2943,-0.007273
3839.1580,-0.007368
3841.0216,-0.007098
3842.8853,-0.007123
3844.7490,-0.007516
3846.6126,-0.007627
3848.4763,-0.007903
3850.3400,-0.008192
3852.2037,-0.008305
3854.0673,-0.007595
3855.9310,-0.006397
3857.7947,-0.006401
3859.6583,-0.007136
3861.5220,-0.007642
3863.3857,-0.007640
3865.2493,-0.007280
3867.1130,-0.007015
3868.9767,-0.007306
3870.8403,-0.007726
3872.7040,-0.007664
3874.5677,-0.007409
3876.4314,-0.006967
3878.2950,-0.007321
3880.1587,-0.007655
3882.0224,-0.007073
3883.8860,-0.006942
3885.7497,-0.007571
3887.6134,-0.007512
3889.4770,-0.007314
3891.3407,-0.007331
3893.2044,-0.007157
3895.0680,-0.007174
3896.9317,-0.007111
3898.7954,-0.006831
3900.6590,-0.007013
3902.5227,-0.007396
3904.3864,-0.007824
3906.2501,-0.007284
3908.1137,-0.006689
3909.9774,-0.006769
3911.8411,-0.007123
3913.7047,-0.007166
3915.5684,-0.007043
3917.4321,-0.006988
3919.2957,-0.007165
3921.1594,-0.007324
3923.0231,-0.006971
3924.8867,-0.006866
3926.7504,-0.006859
3928.6141,-0.006986
3930.4777,-0.007331
3932.3414,-0.007035
3934.2051,-0.006842
3936.0688,-0.007025
3937.9324,-0.007282
3939.7961,-0.007103
3941.6598,-0.007066
3943.5234,-0.006980
3945.3871,-0.006824
3947.2508,-0.006915
3949.1144,-0.007168
3950.9781,-0.007002
3952.8418,-0.006625
3954.7054,-0.006871
3956.5691,-0.007119
3958.4328,-0.007139
3960.2965,-0.007109
3962.1601,-0.007061
3964.0238,-0.006829
3965.8875,-0.006470
3967.7511,-0.006483
3969.6148,-0.006797
3971.4785,-0.007073
3973.3421,-0.006828
3975.2058,-0.006520
3977.0695,-0.006627
3978.9331,-0.006959
3980.7968,-0.006905
3982.6605,-0.006915
3984.5241,-0.007084
3986.3878,-0.006934
3988.2515,-0.006796
3990.1152,-0.006853
3991.9788,-0.006786
3993.8425,-0.006827
3995.7062,-0.007073
3997.5698,-0.007020
3999.4335,-0.006730
