Wavenumber,Intensity
650.4205,0.048178
652.2841,0.048053
654.1478,0.047660
656.0115,0.047886
657.8751,0.047524
659.7388,0.046615
661.6025,0.046906
663.4661,0.047049
665.3298,0.046105
667.1935,0.044215
669.0571,0.045569
670.9208,0.046570
672.7845,0.045343
674.6481,0.044408
676.5118,0.045324
678.3755,0.045974
680.2392,0.045345
682.1028,0.044203
683.9665,0.043266
685.8302,0.043672
687.6938,0.044572
689.5575,0.044949
691.4212,0.044238
693.2848,0.042185
695.1485,0.041820
697.0122,0.042923
698.8758,0.042484
700.7395,0.041471
702.6032,0.041271
704.4669,0.041657
706.3305,0.041809
708.1942,0.041625
710.0579,0.041064
711.9215,0.039847
713.7852,0.039320
715.6489,0.039394
717.5125,0.039071
719.3762,0.038762
721.2399,0.038599
723.1035,0.038069
724.9672,0.037325
726.8309,0.036585
728.6945,0.035601
730.5582,0.035012
732.4219,0.034994
734.2856,0.035002
736.1492,0.034734
738.0129,0.034041
739.8766,0.033635
741.7402,0.033860
743.6039,0.033830
745.4676,0.033200
747.3312,0.032950
749.1949,0.033010
751.0586,0.033111
752.9222,0.033162
754.7859,0.033018
756.6496,0.033068
758.5132,0.033036
760.3769,0.032672
762.2406,0.032277
764.1043,0.031967
765.9679,0.031696
767.8316,0.031442
769.6953,0.031056
771.5589,0.030617
773.4226,0.030554
775.2863,0.030378
777.1499,0.029992
779.0136,0.030095
780.8773,0.029956
782.7409,0.029562
784.6046,0.029602
786.4683,0.029382
788.3320,0.028683
790.1956,0.027893
792.0593,0.027167
793.9230,0.026893
795.7866,0.026681
797.6503,0.026402
799.5140,0.026261
801.3776,0.026071
803.2413,0.025933
805.1050,0.026218
806.9686,0.026219
808.8323,0.025663
810.6960,0.025700
812.5596,0.026075
814.4233,0.025932
816.2870,0.025713
818.1507,0.025635
820.0143,0.025341
821.8780,0.025142
823.7417,0.024992
825.6053,0.024435
827.4690,0.024320
829.3327,0.024449
831.1963,0.024237
833.0600,0.024442
834.9237,0.024839
836.7873,0.024787
838.6510,0.024779
840.5147,0.025097
842.3784,0.025356
844.2420,0.025283
846.1057,0.024990
847.9694,0.024934
849.8330,0.025083
851.6967,0.025142
853.5604,0.025182
855.4240,0.025259
857.2877,0.025244
859.1514,0.024895
861.0150,0.024746
862.8787,0.025013
864.7424,0.025101
866.6060,0.024771
868.4697,0.024523
870.3334,0.024417
872.1971,0.024250
874.0607,0.024228
875.9244,0.024236
877.7881,0.024009
879.6517,0.023801
881.5154,0.023856
883.3791,0.024008
885.2427,0.024004
887.1064,0.024066
888.9701,0.024512
890.8337,0.024915
892.6974,0.025130
894.5611,0.025442
896.4247,0.025800
898.2884,0.025981
900.1521,0.025984
902.0158,0.026271
903.8794,0.026634
905.7431,0.026732
907.6068,0.026741
909.4704,0.026977
911.3341,0.027494
913.1978,0.027979
915.0614,0.028389
916.9251,0.028650
918.7888,0.028706
920.6524,0.028824
922.5161,0.028929
924.3798,0.029001
926.2435,0.029120
928.1071,0.029149
929.9708,0.029011
931.8345,0.028902
933.6981,0.028848
935.5618,0.028854
937.4255,0.028860
939.2891,0.028827
941.1528,0.028930
943.0165,0.029272
944.8801,0.029714
946.7438,0.030125
948.6075,0.030603
950.4711,0.031149
952.3348,0.031717
954.1985,0.032467
956.0622,0.033336
957.9258,0.034214
959.7895,0.035109
961.6532,0.036188
963.5168,0.037302
965.3805,0.038275
967.2442,0.039128
969.1078,0.039993
970.9715,0.040939
972.8352,0.041855
974.6988,0.042844
976.5625,0.044104
978.4262,0.045516
980.2899,0.047006
982.1535,0.048528
984.0172,0.050079
985.8809,0.051501
987.7445,0.052768
989.6082,0.053795
991.4719,0.054676
993.3355,0.055459
995.1992,0.056201
997.0629,0.056864
998.9265,0.057379
1000.7902,0.057987
1002.6539,0.058694
1004.5175,0.059283
1006.3812,0.059944
1008.2449,0.060711
1010.1086,0.061455
1011.9722,0.062131
1013.8359,0.062760
1015.6996,0.063306
1017.5632,0.063735
1019.4269,0.063933
1021.2906,0.063951
1023.1542,0.063929
1025.0179,0.063719
1026.8816,0.063402
1028.7452,0.062993
1030.6089,0.062395
1032.4726,0.061879
1034.3362,0.061256
1036.1999,0.060504
1038.0636,0.059750
1039.9273,0.058923
1041.7909,0.057985
1043.6546,0.057077
1045.5183,0.056213
1047.3819,0.055456
1049.2456,0.054817
1051.1093,0.054143
1052.9729,0.053404
1054.8366,0.052683
1056.7003,0.051969
1058.5639,0.051228
1060.4276,0.050562
1062.2913,0.050060
1064.1550,0.049672
1066.0186,0.049672
1067.8823,0.050055
1069.7460,0.050531
1071.6096,0.050878
1073.4733,0.050982
1075.3370,0.050871
1077.2006,0.050306
1079.0643,0.049217
1080.9280,0.047773
1082.7916,0.046321
1084.6553,0.044924
1086.5190,0.043603
1088.3826,0.042601
1090.2463,0.042024
1092.1100,0.041688
1093.9737,0.041486
1095.8373,0.041428
1097.7010,0.041450
1099.5647,0.041369
1101.4283,0.041284
1103.2920,0.041179
1105.1557,0.040910
1107.0193,0.040653
1108.8830,0.040400
1110.7467,0.040065
1112.6103,0.039694
1114.4740,0.039287
1116.3377,0.038697
1118.2014,0.038022
1120.0650,0.037449
1121.9287,0.036830
1123.7924,0.036201
1125.6560,0.035601
1127.5197,0.035056
1129.3834,0.034788
1131.2470,0.034745
1133.1107,0.034842
1134.9744,0.035181
1136.8380,0.035782
1138.7017,0.036534
1140.5654,0.037395
1142.4290,0.038120
1144.2927,0.038634
1146.1564,0.038922
1148.0201,0.038887
1149.8837,0.038608
1151.7474,0.038028
1153.6111,0.037324
1155.4747,0.036488
1157.3384,0.035351
1159.2021,0.034078
1161.0657,0.032948
1162.9294,0.031914
1164.7931,0.030786
1166.6567,0.029762
1168.5204,0.028894
1170.3841,0.028053
1172.2477,0.027148
1174.1114,0.026333
1175.9751,0.025591
1177.8388,0.024962
1179.7024,0.024427
1181.5661,0.024012
1183.4298,0.023772
1185.2934,0.023644
1187.1571,0.023570
1189.0208,0.023731
1190.8844,0.023957
1192.7481,0.024120
1194.6118,0.024436
1196.4754,0.024832
1198.3391,0.025067
1200.2028,0.025256
1202.0665,0.025620
1203.9301,0.025962
1205.7938,0.026088
1207.6575,0.026197
1209.5211,0.026375
1211.3848,0.026648
1213.2485,0.026915
1215.1121,0.027110
1216.9758,0.027483
1218.8395,0.028012
1220.7031,0.028524
1222.5668,0.029019
1224.4305,0.029620
1226.2941,0.030189
1228.1578,0.030572
1230.0215,0.030903
1231.8852,0.031156
1233.7488,0.031464
1235.6125,0.031671
1237.4762,0.031683
1239.3398,0.031587
1241.2035,0.031558
1243.0672,0.031548
1244.9308,0.031379
1246.7945,0.031020
1248.6582,0.030672
1250.5218,0.030417
1252.3855,0.030251
1254.2492,0.030024
1256.1129,0.029735
1257.9765,0.029600
1259.8402,0.029434
1261.7039,0.029134
1263.5675,0.028954
1265.4312,0.028926
1267.2949,0.028767
1269.1585,0.028467
1271.0222,0.028301
1272.8859,0.028155
1274.7495,0.027988
1276.6132,0.027917
1278.4769,0.028076
1280.3405,0.028088
1282.2042,0.027927
1284.0679,0.027858
1285.9316,0.027841
1287.7952,0.027826
1289.6589,0.027781
1291.5226,0.027888
1293.3862,0.028094
1295.2499,0.028297
1297.1136,0.028569
1298.9772,0.028746
1300.8409,0.028920
1302.7046,0.029173
1304.5682,0.029352
1306.4319,0.029483
1308.2956,0.029580
1310.1592,0.029645
1312.0229,0.029755
1313.8866,0.029785
1315.7503,0.029746
1317.6139,0.029738
1319.4776,0.029712
1321.3413,0.029578
1323.2049,0.029408
1325.0686,0.029312
1326.9323,0.029295
1328.7959,0.029260
1330.6596,0.029259
1332.5233,0.029288
1334.3869,0.029373
1336.2506,0.029431
1338.1143,0.029599
1339.9780,0.029972
1341.8416,0.030089
1343.7053,0.029990
1345.5690,0.029989
1347.4326,0.029995
1349.2963,0.030131
1351.1600,0.030333
1353.0236,0.030384
1354.8873,0.030428
1356.7510,0.030402
1358.6146,0.030317
1360.4783,0.030329
1362.3420,0.030778
1364.2056,0.031453
1366.0693,0.031539
1367.9330,0.031609
1369.7967,0.031777
1371.6603,0.031683
1373.5240,0.032052
1375.3877,0.032739
1377.2513,0.032708
1379.1150,0.032545
1380.9787,0.032438
1382.8423,0.032227
1384.7060,0.031959
1386.5697,0.032075
1388.4333,0.032403
1390.2970,0.032085
1392.1607,0.031831
1394.0244,0.032002
1395.8880,0.032437
1397.7517,0.032559
1399.6154,0.032862
1401.4790,0.032858
1403.3427,0.032742
1405.2064,0.033142
1407.0700,0.033390
1408.9337,0.033476
1410.7974,0.033561
1412.6610,0.033583
1414.5247,0.033440
1416.3884,0.032948
1418.2520,0.032806
1420.1157,0.033215
1421.9794,0.032754
1423.8431,0.032427
1425.7067,0.032501
1427.5704,0.032411
1429.4341,0.032705
1431.2977,0.033209
1433.1614,0.033181
1435.0251,0.033055
1436.8887,0.034070
1438.7524,0.034901
1440.6161,0.034887
1442.4797,0.034948
1444.3434,0.034906
1446.2071,0.034956
1448.0707,0.035252
1449.9344,0.035488
1451.7981,0.035135
1453.6618,0.034463
1455.5254,0.033773
1457.3891,0.034063
1459.2528,0.033844
1461.1164,0.032769
1462.9801,0.031639
1464.8438,0.031338
1466.7074,0.030678
1468.5711,0.028825
1470.4348,0.026486
1472.2984,0.024772
1474.1621,0.024168
1476.0258,0.023517
1477.8895,0.022995
1479.7531,0.022636
1481.6168,0.022650
1483.4805,0.022539
1485.3441,0.022264
1487.2078,0.022575
1489.0715,0.023879
1490.9351,0.025442
1492.7988,0.025847
1494.6625,0.025947
1496.5261,0.027440
1498.3898,0.029291
1500.2535,0.030310
1502.1171,0.030533
1503.9808,0.030322
1505.8445,0.031222
1507.7082,0.034606
1509.5718,0.035877
1511.4355,0.036421
1513.2992,0.037131
1515.1628,0.037401
1517.0265,0.037783
1518.8902,0.037880
1520.7538,0.037910
1522.6175,0.038891
1524.4812,0.039120
1526.3448,0.039457
1528.2085,0.039758
1530.0722,0.039502
1531.9359,0.039294
1533.7995,0.040001
1535.6632,0.039788
1537.5269,0.038426
1539.3905,0.037750
1541.2542,0.038533
1543.1179,0.038591
1544.9815,0.038441
1546.8452,0.037909
1548.7089,0.037053
1550.5725,0.036378
1552.4362,0.035396
1554.2999,0.034302
1556.1635,0.032979
1558.0272,0.031811
1559.8909,0.032439
1561.7546,0.032048
1563.6182,0.031065
1565.4819,0.030206
1567.3456,0.029433
1569.2092,0.029116
1571.0729,0.029076
1572.9366,0.028371
1574.8002,0.027840
1576.6639,0.028550
1578.5276,0.028765
1580.3912,0.028401
1582.2549,0.028448
1584.1186,0.028614
1585.9822,0.028961
1587.8459,0.029335
1589.7096,0.029653
1591.5733,0.030165
1593.4369,0.030978
1595.3006,0.031684
1597.1643,0.032431
1599.0279,0.033132
1600.8916,0.033878
1602.7553,0.034761
1604.6189,0.035836
1606.4826,0.036762
1608.3463,0.037880
1610.2099,0.039301
1612.0736,0.040248
1613.9373,0.040807
1615.8010,0.041562
1617.6646,0.043198
1619.5283,0.044211
1621.3920,0.044477
1623.2556,0.045198
1625.1193,0.046039
1626.9830,0.046428
1628.8466,0.047023
1630.7103,0.047496
1632.5740,0.047112
1634.4376,0.046125
1636.3013,0.046164
1638.1650,0.046771
1640.0286,0.046807
1641.8923,0.046734
1643.7560,0.046154
1645.6197,0.045278
1647.4833,0.045031
1649.3470,0.044661
1651.2107,0.043123
1653.0743,0.041531
1654.9380,0.041774
1656.8017,0.041226
1658.6653,0.040053
1660.5290,0.038630
1662.3927,0.037031
1664.2563,0.036035
1666.1200,0.034890
1667.9837,0.033139
1669.8474,0.031439
1671.7110,0.030214
1673.5747,0.028754
1675.4384,0.027185
1677.3020,0.025992
1679.1657,0.024555
1681.0294,0.022834
1682.8930,0.020920
1684.7567,0.019384
1686.6204,0.018362
1688.4840,0.016861
1690.3477,0.015199
1692.2114,0.013728
1694.0750,0.011983
1695.9387,0.010216
1697.8024,0.009295
1699.6661,0.008050
1701.5297,0.006778
1703.3934,0.005677
1705.2571,0.004666
1707.1207,0.003993
1708.9844,0.003482
1710.8481,0.002964
1712.7117,0.002512
1714.5754,0.002216
1716.4391,0.002142
1718.3027,0.002359
1720.1664,0.002767
1722.0301,0.002817
1723.8937,0.002952
1725.7574,0.003350
1727.6211,0.003963
1729.4848,0.004706
1731.3484,0.005563
1733.2121,0.006650
1735.0758,0.008847
1736.9394,0.009999
1738.8031,0.010820
1740.6668,0.012014
1742.5304,0.012621
1744.3941,0.012494
1746.2578,0.011715
1748.1214,0.010229
1749.9851,0.008467
1751.8488,0.006661
1753.7125,0.004968
1755.5761,0.003181
1757.4398,0.001451
1759.3035,-0.000138
1761.1671,-0.001197
1763.0308,-0.001882
1764.8945,-0.002443
1766.7581,-0.003009
1768.6218,-0.003292
1770.4855,-0.003562
1772.3491,-0.003926
1774.2128,-0.004001
1776.0765,-0.003915
1777.9401,-0.004221
1779.8038,-0.004390
1781.6675,-0.004171
1783.5312,-0.004113
1785.3948,-0.004130
1787.2585,-0.004144
1789.1222,-0.004359
1790.9858,-0.004552
1792.8495,-0.004486
1794.7132,-0.004495
1796.5768,-0.004572
1798.4405,-0.004534
1800.3042,-0.004452
1802.1678,-0.004489
1804.0315,-0.004549
1805.8952,-0.004738
1807.7589,-0.004815
1809.6225,-0.004899
1811.4862,-0.004988
1813.3499,-0.004878
1815.2135,-0.004851
1817.0772,-0.004657
1818.9409,-0.004319
1820.8045,-0.004374
1822.6682,-0.004582
1824.5319,-0.004890
1826.3955,-0.004623
1828.2592,-0.004417
1830.1229,-0.004533
1831.9865,-0.004405
1833.8502,-0.004560
1835.7139,-0.004795
1837.5776,-0.004641
1839.4412,-0.004358
1841.3049,-0.004368
1843.1686,-0.004505
1845.0322,-0.004377
1846.8959,-0.004425
1848.7596,-0.004647
1850.6232,-0.004446
1852.4869,-0.004475
1854.3506,-0.004519
1856.2142,-0.004324
1858.0779,-0.004165
1859.9416,-0.004076
1861.8052,-0.003838
1863.6689,-0.003758
1865.5326,-0.004143
1867.3963,-0.004180
1869.2599,-0.004042
1871.1236,-0.003994
1872.9873,-0.003736
1874.8509,-0.003821
1876.7146,-0.004063
1878.5783,-0.003912
1880.4419,-0.003766
1882.3056,-0.003987
1884.1693,-0.003655
1886.0329,-0.003466
1887.8966,-0.003870
1889.7603,-0.003504
1891.6240,-0.003113
1893.4876,-0.003367
1895.3513,-0.003597
1897.2150,-0.003886
1899.0786,-0.004121
1900.9423,-0.003525
1902.8060,-0.003255
1904.6696,-0.003472
1906.5333,-0.003416
1908.3970,-0.002906
1910.2606,-0.002981
1912.1243,-0.003517
1913.9880,-0.003432
1915.8516,-0.003443
1917.7153,-0.003407
1919.5790,-0.003308
1921.4427,-0.003528
1923.3063,-0.003522
1925.1700,-0.003366
1927.0337,-0.003374
1928.8973,-0.003283
1930.7610,-0.002947
1932.6247,-0.003141
1934.4883,-0.003439
1936.3520,-0.003561
1938.2157,-0.003961
1940.0793,-0.003928
1941.9430,-0.003001
1943.8067,-0.002157
1945.6704,-0.002314
1947.5340,-0.002987
1949.3977,-0.003066
1951.2614,-0.002691
1953.1250,-0.002407
1954.9887,-0.002456
1956.8524,-0.002741
1958.7160,-0.002523
1960.5797,-0.002636
1962.4434,-0.002941
1964.3070,-0.002415
1966.1707,-0.002233
1968.0344,-0.001698
1969.8980,-0.001590
1971.7617,-0.002707
1973.6254,-0.002909
1975.4891,-0.001807
1977.3527,-0.000221
1979.2164,0.000661
1981.0801,0.000362
1982.9437,-0.000136
1984.8074,-0.000457
1986.6711,-0.000482
1988.5347,-0.001215
1990.3984,-0.002302
1992.2621,-0.001984
1994.1257,-0.001968
1995.9894,-0.002496
1997.8531,-0.002232
1999.7167,-0.001764
2001.5804,-0.001548
2003.4441,-0.000969
2005.3078,-0.000505
2007.1714,-0.000488
2009.0351,-0.000505
2010.8988,-0.000666
2012.7624,-0.000610
2014.6261,0.000513
2016.4898,0.001224
2018.3534,-0.000039
2020.2171,-0.000737
2022.0808,-0.000424
2023.9444,-0.000073
2025.8081,-0.000028
2027.6718,0.000101
2029.5355,-0.000493
2031.3991,-0.000776
2033.2628,-0.000345
2035.1265,0.000233
2036.9901,0.001195
2038.8538,0.001172
2040.7175,-0.000405
2042.5811,-0.001329
2044.4448,-0.000202
2046.3085,0.000943
2048.1721,0.000875
2050.0358,0.000044
2051.8995,-0.000545
2053.7631,-0.000636
2055.6268,-0.000758
2057.4905,-0.001211
2059.3542,-0.001189
2061.2178,-0.000724
2063.0815,-0.000922
2064.9452,-0.001382
2066.8088,-0.000894
2068.6725,-0.000491
2070.5362,-0.000981
2072.3998,-0.001144
2074.2635,-0.000582
2076.1272,-0.000710
2077.9908,-0.001125
2079.8545,-0.000762
2081.7182,-0.000532
2083.5819,-0.000901
2085.4455,-0.001327
2087.3092,-0.001256
2089.1729,-0.001124
2091.0365,-0.001663
2092.9002,-0.002158
2094.7639,-0.002091
2096.6275,-0.001823
2098.4912,-0.001519
2100.3549,-0.001266
2102.2185,-0.001250
2104.0822,-0.001131
2105.9459,-0.001193
2107.8095,-0.001567
2109.6732,-0.002015
2111.5369,-0.002268
2113.4006,-0.001738
2115.2642,-0.001395
2117.1279,-0.001487
2118.9916,-0.001992
2120.8552,-0.002175
2122.7189,-0.001871
2124.5826,-0.001944
2126.4462,-0.001815
2128.3099,-0.002008
2130.1736,-0.002385
2132.0372,-0.002248
2133.9009,-0.002244
2135.7646,-0.002949
2137.6282,-0.002805
2139.4919,-0.001881
2141.3556,-0.001534
2143.2193,-0.001713
2145.0829,-0.001739
2146.9466,-0.001771
2148.8103,-0.001676
2150.6739,-0.000891
2152.5376,-0.001485
2154.4013,-0.002168
2156.2649,-0.000802
2158.1286,0.000269
2159.9923,0.001579
2161.8559,0.002575
2163.7196,0.002507
2165.5833,0.002918
2167.4470,0.002047
2169.3106,0.000540
2171.1743,0.000604
2173.0380,0.000566
2174.9016,0.000255
2176.7653,0.000034
2178.6290,-0.000219
2180.4926,0.000136
2182.3563,0.000896
2184.2200,0.000559
2186.0836,-0.000311
2187.9473,0.000146
2189.8110,0.000883
2191.6746,0.000725
2193.5383,0.000854
2195.4020,0.002069
2197.2657,0.002575
2199.1293,0.000861
2200.9930,-0.000677
2202.8567,-0.000418
2204.7203,0.000544
2206.5840,0.000701
2208.4477,0.000569
2210.3113,0.000927
2212.1750,0.000795
2214.0387,0.000383
2215.9023,0.000467
2217.7660,0.000315
2219.6297,-0.000231
2221.4934,-0.000346
2223.3570,0.000314
2225.2207,0.000738
2227.0844,0.000045
2228.9480,-0.000282
2230.8117,-0.000453
2232.6754,-0.000667
2234.5390,0.000001
2236.4027,0.000049
2238.2664,-0.000940
2240.1300,-0.001452
2241.9937,-0.000878
2243.8574,-0.000209
2245.7210,-0.000335
2247.5847,-0.000653
2249.4484,-0.000254
2251.3121,0.000073
2253.1757,-0.000295
2255.0394,-0.000100
2256.9031,0.000242
2258.7667,-0.000054
2260.6304,-0.000408
2262.4941,-0.000476
2264.3577,-0.000579
2266.2214,-0.000714
2268.0851,-0.000901
2269.9487,-0.001326
2271.8124,-0.000997
2273.6761,-0.000124
2275.5397,-0.000019
2277.4034,-0.000586
2279.2671,-0.000510
2281.1308,-0.000173
2282.9944,-0.000350
2284.8581,-0.000305
2286.7218,-0.000548
2288.5854,-0.000696
2290.4491,-0.000239
2292.3128,-0.000158
2294.1764,-0.000726
2296.0401,-0.001190
2297.9038,-0.001231
2299.7674,-0.001309
2301.6311,-0.001256
2303.4948,-0.001128
2305.3585,-0.001288
2307.2221,-0.001323
2309.0858,-0.001051
2310.9495,-0.000923
2312.8131,-0.001094
2314.6768,-0.001267
2316.5405,-0.001332
2318.4041,-0.001322
2320.2678,-0.000569
2322.1315,0.000182
2323.9951,0.000156
2325.8588,-0.000656
2327.7225,-0.001699
2329.5861,-0.001911
2331.4498,-0.001841
2333.3135,-0.001926
2335.1772,-0.001779
2337.0408,-0.001548
2338.9045,-0.001459
2340.7682,-0.001292
2342.6318,-0.001119
2344.4955,-0.001236
2346.3592,-0.001500
2348.2228,-0.001887
2350.0865,-0.002405
2351.9502,-0.002790
2353.8138,-0.002848
2355.6775,-0.002544
2357.5412,-0.001588
2359.4049,-0.000862
2361.2685,-0.001096
2363.1322,-0.001743
2364.9959,-0.002014
2366.8595,-0.002011
2368.7232,-0.001638
2370.5869,-0.000946
2372.4505,-0.000626
2374.3142,-0.000679
2376.1779,-0.000927
2378.0415,-0.001372
2379.9052,-0.001720
2381.7689,-0.001818
2383.6325,-0.001583
2385.4962,-0.001618
2387.3599,-0.001913
2389.2236,-0.001794
2391.0872,-0.001564
2392.9509,-0.001314
2394.8146,-0.001269
2396.6782,-0.001655
2398.5419,-0.001935
2400.4056,-0.001798
2402.2692,-0.001602
2404.1329,-0.001644
2405.9966,-0.001319
2407.8602,-0.000911
2409.7239,-0.001004
2411.5876,-0.001025
2413.4512,-0.000723
2415.3149,-0.000611
2417.1786,-0.000822
2419.0423,-0.001105
2420.9059,-0.001335
2422.7696,-0.001330
2424.6333,-0.001247
2426.4969,-0.001158
2428.3606,-0.000950
2430.2243,-0.000592
2432.0879,-0.000295
2433.9516,-0.000261
2435.8153,-0.000438
2437.6789,-0.000372
2439.5426,-0.000110
2441.4063,-0.000196
2443.2700,-0.000288
2445.1336,0.000075
2446.9973,0.000270
2448.8610,0.000142
2450.7246,-0.000022
2452.5883,0.000072
2454.4520,0.000257
2456.3156,0.000290
2458.1793,0.000312
2460.0430,-0.000023
2461.9066,-0.000272
2463.7703,-0.000133
2465.6340,-0.000083
2467.4976,-0.000071
2469.3613,0.000236
2471.2250,0.000405
2473.0887,0.000252
2474.9523,0.000146
2476.8160,0.000395
2478.6797,0.000601
2480.5433,0.000315
2482.4070,0.000261
2484.2707,0.000652
2486.1343,0.000960
2487.9980,0.000940
2489.8617,0.000633
2491.7253,0.000650
2493.5890,0.000799
2495.4527,0.000888
2497.3164,0.000846
2499.1800,0.000352
2501.0437,0.000494
2502.9074,0.000993
2504.7710,0.001111
2506.6347,0.001096
2508.4984,0.001085
2510.3620,0.001022
2512.2257,0.001317
2514.0894,0.001644
2515.9530,0.001427
2517.8167,0.000844
2519.6804,0.000667
2521.5440,0.000914
2523.4077,0.000992
2525.2714,0.000913
2527.1351,0.000841
2528.9987,0.001014
2530.8624,0.001330
2532.7261,0.001533
2534.5897,0.001386
2536.4534,0.001265
2538.3171,0.001312
2540.1807,0.001397
2542.0444,0.001504
2543.9081,0.001432
2545.7717,0.001550
2547.6354,0.001947
2549.4991,0.001973
2551.3627,0.001843
2553.2264,0.001673
2555.0901,0.001228
2556.9538,0.001363
2558.8174,0.001855
2560.6811,0.001689
2562.5448,0.001374
2564.4084,0.001399
2566.2721,0.001762
2568.1358,0.001894
2569.9994,0.001820
2571.8631,0.002011
2573.7268,0.002220
2575.5904,0.002079
2577.4541,0.001944
2579.3178,0.002406
2581.1815,0.002821
2583.0451,0.002553
2584.9088,0.002329
2586.7725,0.002255
2588.6361,0.002263
2590.4998,0.002390
2592.3635,0.002804
2594.2271,0.002822
2596.0908,0.002470
2597.9545,0.002507
2599.8181,0.002867
2601.6818,0.002946
2603.5455,0.003105
2605.4091,0.003303
2607.2728,0.003310
2609.1365,0.003363
2611.0002,0.003425
2612.8638,0.003241
2614.7275,0.003084
2616.5912,0.003198
2618.4548,0.003351
2620.3185,0.003463
2622.1822,0.003566
2624.0458,0.003448
2625.9095,0.003427
2627.7732,0.003739
2629.6368,0.003791
2631.5005,0.003768
2633.3642,0.003884
2635.2279,0.004035
2637.0915,0.004211
2638.9552,0.004144
2640.8189,0.004039
2642.6825,0.004063
2644.5462,0.004288
2646.4099,0.004404
2648.2735,0.004238
2650.1372,0.004303
2652.0009,0.004541
2653.8645,0.004600
2655.7282,0.004576
2657.5919,0.004530
2659.4555,0.004424
2661.3192,0.004228
2663.1829,0.004192
2665.0466,0.004262
2666.9102,0.004196
2668.7739,0.004270
2670.6376,0.004386
2672.5012,0.004409
2674.3649,0.004556
2676.2286,0.004737
2678.0922,0.004714
2679.9559,0.004687
2681.8196,0.004853
2683.6832,0.004907
2685.5469,0.004948
2687.4106,0.004940
2689.2742,0.004812
2691.1379,0.004910
2693.0016,0.005092
2694.8653,0.005195
2696.7289,0.005293
2698.5926,0.005165
2700.4563,0.005237
2702.3199,0.005268
2704.1836,0.005279
2706.0473,0.005465
2707.9109,0.005537
2709.7746,0.005618
2711.6383,0.005729
2713.5019,0.005655
2715.3656,0.005768
2717.2293,0.005910
2719.0930,0.005863
2720.9566,0.005939
2722.8203,0.005964
2724.6840,0.005950
2726.5476,0.006036
2728.4113,0.006140
2730.2750,0.006348
2732.1386,0.006483
2734.0023,0.006296
2735.8660,0.006280
2737.7296,0.006378
2739.5933,0.006488
2741.4570,0.006607
2743.3206,0.006845
2745.1843,0.006977
2747.0480,0.007037
2748.9117,0.007114
2750.7753,0.007100
2752.6390,0.007154
2754.5027,0.007271
2756.3663,0.007456
2758.2300,0.007526
2760.0937,0.007332
2761.9573,0.007438
2763.8210,0.007711
2765.6847,0.007851
2767.5483,0.007846
2769.4120,0.008024
2771.2757,0.008181
2773.1394,0.008116
2775.0030,0.008138
2776.8667,0.008295
2778.7304,0.008491
2780.5940,0.008709
2782.4577,0.008609
2784.3214,0.008584
2786.1850,0.008809
2788.0487,0.009140
2789.9124,0.009195
2791.7760,0.009258
2793.6397,0.009345
2795.5034,0.009412
2797.3670,0.009556
2799.2307,0.009792
2801.0944,0.010035
2802.9581,0.010160
2804.8217,0.010110
2806.6854,0.010257
2808.5491,0.010478
2810.4127,0.010534
2812.2764,0.010607
2814.1401,0.010899
2816.0037,0.011237
2817.8674,0.011446
2819.7311,0.011754
2821.5947,0.011926
2823.4584,0.011961
2825.3221,0.012372
2827.1857,0.012692
2829.0494,0.012803
2830.9131,0.013129
2832.7768,0.013738
2834.6404,0.014245
2836.5041,0.014871
2838.3678,0.015627
2840.2314,0.016441
2842.0951,0.017598
2843.9588,0.019132
2845.8224,0.020838
2847.6861,0.022397
2849.5498,0.023552
2851.4134,0.024453
2853.2771,0.024598
2855.1408,0.024174
2857.0045,0.023364
2858.8681,0.022413
2860.7318,0.021142
2862.5955,0.020188
2864.4591,0.019718
2866.3228,0.019493
2868.1865,0.019398
2870.0501,0.019387
2871.9138,0.019481
2873.7775,0.019692
2875.6411,0.019680
2877.5048,0.019545
2879.3685,0.019341
2881.2321,0.019237
2883.0958,0.019491
2884.9595,0.019825
2886.8232,0.019837
2888.6868,0.020080
2890.5505,0.020648
2892.4142,0.021253
2894.2778,0.021693
2896.1415,0.022035
2898.0052,0.022558
2899.8688,0.023310
2901.7325,0.023900
2903.5962,0.024537
2905.4598,0.025203
2907.3235,0.025969
2909.1872,0.026776
2911.0509,0.027847
2912.9145,0.029139
2914.7782,0.030314
2916.6419,0.031366
2918.5055,0.032044
2920.3692,0.032572
2922.2329,0.032924
2924.0965,0.032693
2925.9602,0.032211
2927.8239,0.031621
2929.6875,0.030564
2931.5512,0.029362
2933.4149,0.028177
2935.2785,0.026932
2937.1422,0.025676
2939.0059,0.024254
2940.8696,0.023309
2942.7332,0.022435
2944.5969,0.021734
2946.4606,0.021246
2948.3242,0.021061
2950.1879,0.020894
2952.0516,0.020719
2953.9152,0.020456
2955.7789,0.020161
2957.6426,0.019979
2959.5062,0.019863
2961.3699,0.019704
2963.2336,0.019159
2965.0972,0.018427
2966.9609,0.017729
2968.8246,0.017216
2970.6883,0.016762
2972.5519,0.016099
2974.4156,0.015604
2976.2793,0.015075
2978.1429,0.014742
2980.0066,0.014655
2981.8703,0.014152
2983.7339,0.013789
2985.5976,0.013727
2987.4613,0.013391
2989.3249,0.012912
2991.1886,0.012785
2993.0523,0.012732
2994.9160,0.012614
2996.7796,0.012706
2998.6433,0.012971
3000.5070,0.013189
3002.3706,0.013211
3004.2343,0.013256
3006.0980,0.013243
3007.9616,0.013432
3009.8253,0.013689
3011.6890,0.013752
3013.5526,0.013630
3015.4163,0.013459
3017.2800,0.013397
3019.1436,0.013571
3021.0073,0.013667
3022.8710,0.013756
3024.7347,0.013928
3026.5983,0.014160
3028.4620,0.014235
3030.3257,0.014222
3032.1893,0.014420
3034.0530,0.014890
3035.9167,0.015131
3037.7803,0.015308
3039.6440,0.015554
3041.5077,0.015494
3043.3713,0.015408
3045.2350,0.015535
3047.0987,0.015793
3048.9624,0.016043
3050.8260,0.016172
3052.6897,0.016198
3054.5534,0.016420
3056.4170,0.016562
3058.2807,0.016516
3060.1444,0.016746
3062.0080,0.016964
3063.8717,0.017141
3065.7354,0.017364
3067.5990,0.017318
3069.4627,0.017132
3071.3264,0.017246
3073.1900,0.017336
3075.0537,0.017399
3076.9174,0.017438
3078.7811,0.017546
3080.6447,0.017810
3082.5084,0.017978
3084.3721,0.017845
3086.2357,0.017871
3088.0994,0.018060
3089.9631,0.018152
3091.8267,0.018010
3093.6904,0.017897
3095.5541,0.017808
3097.4177,0.017731
3099.2814,0.017898
3101.1451,0.018093
3103.0087,0.018277
3104.8724,0.018425
3106.7361,0.018392
3108.5998,0.018333
3110.4634,0.018339
3112.3271,0.018794
3114.1908,0.019265
3116.0544,0.019442
3117.9181,0.019424
3119.7818,0.019397
3121.6454,0.019320
3123.5091,0.019515
3125.3728,0.019782
3127.2364,0.019887
3129.1001,0.019907
3130.9638,0.019860
3132.8275,0.020061
3134.6911,0.020534
3136.5548,0.020806
3138.4185,0.020967
3140.2821,0.021090
3142.1458,0.021490
3144.0095,0.021667
3145.8731,0.021793
3147.7368,0.022025
3149.6005,0.021840
3151.4641,0.021935
3153.3278,0.022838
3155.1915,0.023077
3157.0551,0.022592
3158.9188,0.022820
3160.7825,0.023622
3162.6462,0.023719
3164.5098,0.023818
3166.3735,0.023998
3168.2372,0.024352
3170.1008,0.024740
3171.9645,0.024628
3173.8282,0.024261
3175.6918,0.024371
3177.5555,0.024964
3179.4192,0.025293
3181.2828,0.025332
3183.1465,0.025357
3185.0102,0.025376
3186.8739,0.025897
3188.7375,0.026304
3190.6012,0.026445
3192.4649,0.026344
3194.3285,0.026154
3196.1922,0.026210
3198.0559,0.026508
3199.9195,0.026366
3201.7832,0.026329
3203.6469,0.026725
3205.5105,0.027043
3207.3742,0.027337
3209.2379,0.027197
3211.1015,0.026977
3212.9652,0.026988
3214.8289,0.026527
3216.6926,0.026509
3218.5562,0.026926
3220.4199,0.027463
3222.2836,0.027441
3224.1472,0.027112
3226.0109,0.027038
3227.8746,0.027408
3229.7382,0.027665
3231.6019,0.027901
3233.4656,0.027890
3235.3292,0.027566
3237.1929,0.027418
3239.0566,0.027648
3240.9202,0.028060
3242.7839,0.028114
3244.6476,0.027841
3246.5113,0.027951
3248.3749,0.028085
3250.2386,0.028414
3252.1023,0.028936
3253.9659,0.029109
3255.8296,0.028549
3257.6933,0.028502
3259.5569,0.028306
3261.4206,0.028039
3263.2843,0.028507
3265.1479,0.029151
3267.0116,0.028855
3268.8753,0.028442
3270.7390,0.028939
3272.6026,0.029267
3274.4663,0.028883
3276.3300,0.028773
3278.1936,0.028500
3280.0573,0.028507
3281.9210,0.028715
3283.7846,0.028980
3285.6483,0.028687
3287.5120,0.028272
3289.3756,0.028257
3291.2393,0.028232
3293.1030,0.028186
3294.9666,0.027963
3296.8303,0.027813
3298.6940,0.027811
3300.5577,0.027494
3302.4213,0.027479
3304.2850,0.027621
3306.1487,0.027553
3308.0123,0.027333
3309.8760,0.027072
3311.7397,0.026620
3313.6033,0.026362
3315.4670,0.026101
3317.3307,0.025873
3319.1943,0.025272
3321.0580,0.025342
3322.9217,0.025588
3324.7854,0.025552
3326.6490,0.025442
3328.5127,0.025465
3330.3764,0.025582
3332.2400,0.025301
3334.1037,0.024747
3335.9674,0.024842
3337.8310,0.024690
3339.6947,0.024400
3341.5584,0.024350
3343.4220,0.024319
3345.2857,0.024389
3347.1494,0.024175
3349.0130,0.023624
3350.8767,0.023424
3352.7404,0.023610
3354.6041,0.023456
3356.4677,0.023042
3358.3314,0.023051
3360.1951,0.023114
3362.0587,0.022898
3363.9224,0.022263
3365.7861,0.021980
3367.6497,0.021977
3369.5134,0.021883
3371.3771,0.021503
3373.2407,0.021371
3375.1044,0.021361
3376.9681,0.021354
3378.8317,0.021111
3380.6954,0.020493
3382.5591,0.020566
3384.4228,0.020504
3386.2864,0.020116
3388.1501,0.020220
3390.0138,0.020062
3391.8774,0.019553
3393.7411,0.019334
3395.6048,0.019378
3397.4684,0.019341
3399.3321,0.019347
3401.1958,0.019013
3403.0594,0.018717
3404.9231,0.019010
3406.7868,0.019221
3408.6505,0.018082
3410.5141,0.017767
3412.3778,0.018552
3414.2415,0.018551
3416.1051,0.018175
3417.9688,0.017754
3419.8325,0.017286
3421.6961,0.017171
3423.5598,0.017101
3425.4235,0.016637
3427.2871,0.016579
3429.1508,0.016962
3431.0145,0.016899
3432.8781,0.016633
3434.7418,0.016045
3436.6055,0.015797
3438.4692,0.015788
3440.3328,0.015411
3442.1965,0.014752
3444.0602,0.014448
3445.9238,0.014005
3447.7875,0.014043
3449.6512,0.014176
3451.5148,0.014045
3453.3785,0.014014
3455.2422,0.013705
3457.1058,0.013423
3458.9695,0.013323
3460.8332,0.013059
3462.6969,0.012341
3464.5605,0.011736
3466.4242,0.012201
3468.2879,0.012887
3470.1515,0.012486
3472.0152,0.012145
3473.8789,0.011768
3475.7425,0.010921
3477.6062,0.010764
3479.4699,0.010788
3481.3335,0.010111
3483.1972,0.009866
3485.0609,0.009916
3486.9245,0.009473
3488.7882,0.009320
3490.6519,0.009339
3492.5156,0.008979
3494.3792,0.008492
3496.2429,0.008147
3498.1066,0.008032
3499.9702,0.007946
3501.8339,0.007814
3503.6976,0.008358
3505.5612,0.008385
3507.4249,0.007307
3509.2886,0.007352
3511.1522,0.007556
3513.0159,0.006648
3514.8796,0.006647
3516.7432,0.007116
3518.6069,0.006258
3520.4706,0.005873
3522.3343,0.006341
3524.1979,0.005877
3526.0616,0.005297
3527.9253,0.005381
3529.7889,0.005901
3531.6526,0.005849
3533.5163,0.005154
3535.3799,0.004524
3537.2436,0.003857
3539.1073,0.003442
3540.9709,0.003666
3542.8346,0.003792
3544.6983,0.002915
3546.5620,0.002048
3548.4256,0.002150
3550.2893,0.002766
3552.1530,0.003229
3554.0166,0.002668
3555.8803,0.001805
3557.7440,0.002202
3559.6076,0.002349
3561.4713,0.001781
3563.3350,0.001473
3565.1986,0.001422
3567.0623,0.001175
3568.9260,0.000680
3570.7896,0.000664
3572.6533,0.000284
3574.5170,-0.000241
3576.3807,-0.000404
3578.2443,-0.000452
3580.1080,-0.000269
3581.9717,-0.000068
3583.8353,-0.000778
3585.6990,-0.001626
3587.5627,-0.000884
3589.4263,-0.000070
3591.2900,-0.000866
3593.1537,-0.002064
3595.0173,-0.002414
3596.8810,-0.002084
3598.7447,-0.002201
3600.6084,-0.002662
3602.4720,-0.002684
3604.3357,-0.002625
3606.1994,-0.002710
3608.0630,-0.002968
3609.9267,-0.003585
3611.7904,-0.003984
3613.6540,-0.003653
3615.5177,-0.003336
3617.3814,-0.003636
3619.2450,-0.004081
3621.1087,-0.003995
3622.9724,-0.004055
3624.8360,-0.004463
3626.6997,-0.005072
3628.5634,-0.005534
3630.4271,-0.004851
3632.2907,-0.004613
3634.1544,-0.004893
3636.0181,-0.005038
3637.8817,-0.005464
3639.7454,-0.005535
3641.6091,-0.005440
3643.4727,-0.005885
3645.3364,-0.006089
3647.2001,-0.006089
3649.0637,-0.006239
3650.9274,-0.005937
3652.7911,-0.005889
3654.6547,-0.006559
3656.5184,-0.007090
3658.3821,-0.007008
3660.2458,-0.006666
3662.1094,-0.006551
3663.9731,-0.006555
3665.8368,-0.006744
3667.7004,-0.007394
3669.5641,-0.007937
3671.4278,-0.007840
3673.2914,-0.007211
3675.1551,-0.007191
3677.0188,-0.007303
3678.8824,-0.007059
3680.7461,-0.007074
3682.6098,-0.007196
3684.4735,-0.007404
3686.3371,-0.007303
3688.2008,-0.007556
3690.0645,-0.007714
3691.9281,-0.006873
3693.7918,-0.006874
3695.6555,-0.007540
3697.5191,-0.007740
3699.3828,-0.007610
3701.2465,-0.007501
3703.1101,-0.007384
3704.9738,-0.007359
3706.8375,-0.007323
3708.7011,-0.007405
3710.5648,-0.007705
3712.4285,-0.007651
3714.2922,-0.007401
3716.1558,-0.007389
3718.0195,-0.007542
3719.8832,-0.007785
3721.7468,-0.007640
3723.6105,-0.007280
3725.4742,-0.007482
3727.3378,-0.007771
3729.2015,-0.007651
3731.0652,-0.007908
3732.9288,-0.008238
3734.7925,-0.007848
3736.6562,-0.007616
3738.5199,-0.007423
3740.3835,-0.007295
3742.2472,-0.007969
3744.1109,-0.009014
3745.9745,-0.008671
3747.8382,-0.008010
3749.7019,-0.008582
3751.5655,-0.008698
3753.4292,-0.007987
3755.2929,-0.007550
3757.1565,-0.007516
3759.0202,-0.007723
3760.8839,-0.007785
3762.7475,-0.007369
3764.6112,-0.007320
3766.4749,-0.007522
3768.3386,-0.007383
3770.2022,-0.007701
3772.0659,-0.007857
3773.9296,-0.007611
3775.7932,-0.007713
3777.6569,-0.008095
3779.5206,-0.008276
3781.3842,-0.007890
3783.2479,-0.007420
3785.1116,-0.007384
3786.9752,-0.007446
3788.8389,-0.007554
3790.7026,-0.007566
3792.5662,-0.007340
3794.4299,-0.007419
3796.2936,-0.008017
3798.1573,-0.008304
3800.0209,-0.008174
3801.8846,-0.008202
3803.7483,-0.008076
3805.6119,-0.008098
3807.4756,-0.008107
3809.3393,-0.007801
3811.2029,-0.007842
3813.0666,-0.007774
3814.9303,-0.007888
3816.7939,-0.008277
3818.6576,-0.008151
3820.5213,-0.008189
3822.3850,-0.008027
3824.2486,-0.007351
3826.1123,-0.007311
3827.9760,-0.007896
3829.8396,-0.008212
3831.7033,-0.008039
3833.5670,-0.007700
3835.4306,-0.007710
3837.2943,-0.008121
3839.1580,-0.008096
3841.0216,-0.007831
3842.8853,-0.007546
3844.7490,-0.007304
3846.6126,-0.007354
3848.4763,-0.007708
3850.3400,-0.008163
3852.2037,-0.008675
3854.0673,-0.008437
3855.9310,-0.007526
3857.7947,-0.007233
3859.6583,-0.007312
3861.5220,-0.007719
3863.3857,-0.008143
3865.2493,-0.007917
3867.1130,-0.007785
3868.9767,-0.008182
3870.8403,-0.008530
3872.7040,-0.008166
3874.5677,-0.007787
3876.4314,-0.007504
3878.2950,-0.007471
3880.1587,-0.007955
3882.0224,-0.007847
3883.8860,-0.007401
3885.7497,-0.007726
3887.6134,-0.007734
3889.4770,-0.007631
3891.3407,-0.008090
3893.2044,-0.007903
3895.0680,-0.007364
3896.9317,-0.007642
3898.7954,-0.007940
3900.6590,-0.008018
3902.5227,-0.007884
3904.3864,-0.007624
3906.2501,-0.007603
3908.1137,-0.007493
3909.9774,-0.007394
3911.8411,-0.007568
3913.7047,-0.007629
3915.5684,-0.007808
3917.4321,-0.007983
3919.2957,-0.007732
3921.1594,-0.007633
3923.0231,-0.007615
3924.8867,-0.007503
3926.7504,-0.007532
3928.6141,-0.007327
3930.4777,-0.007442
3932.3414,-0.007724
3934.2051,-0.007822
3936.0688,-0.007536
3937.9324,-0.007332
3939.7961,-0.007267
3941.6598,-0.007246
3943.5234,-0.007611
3945.3871,-0.007587
3947.2508,-0.007191
3949.1144,-0.007278
3950.9781,-0.007184
3952.8418,-0.007000
3954.7054,-0.007452
3956.5691,-0.008019
3958.4328,-0.007842
3960.2965,-0.007443
3962.1601,-0.007337
3964.0238,-0.007302
3965.8875,-0.007501
3967.7511,-0.007420
3969.6148,-0.007170
3971.4785,-0.007432
3973.3421,-0.007522
3975.2058,-0.007426
3977.0695,-0.007323
3978.9331,-0.007444
3980.7968,-0.007535
3982.6605,-0.007528
3984.5241,-0.007660
3986.3878,-0.007536
3988.2515,-0.007314
3990.1152,-0.007262
3991.9788,-0.007334
3993.8425,-0.007410
3995.7062,-0.007220
3997.5698,-0.007083
3999.4335,-0.007141
