Wavenumber,Intensity
650.4205,0.059183
652.2841,0.057746
654.1478,0.060347
656.0115,0.059135
657.8751,0.057170
659.7388,0.057632
661.6025,0.057363
663.4661,0.057158
665.3298,0.056234
667.1935,0.054606
669.0571,0.057681
670.9208,0.058004
672.7845,0.057858
674.6481,0.056984
676.5118,0.055871
678.3755,0.054974
680.2392,0.054994
682.1028,0.053610
683.9665,0.052888
685.8302,0.053904
687.6938,0.053480
689.5575,0.052580
691.4212,0.052949
693.2848,0.052734
695.1485,0.051639
697.0122,0.050965
698.8758,0.051308
700.7395,0.051021
702.6032,0.049957
704.4669,0.049351
706.3305,0.049401
708.1942,0.049327
710.0579,0.048410
711.9215,0.047173
713.7852,0.047106
715.6489,0.046331
717.5125,0.045759
719.3762,0.046020
721.2399,0.045197
723.1035,0.043682
724.9672,0.042849
726.8309,0.042346
728.6945,0.042162
730.5582,0.041608
732.4219,0.040767
734.2856,0.040404
736.1492,0.040981
738.0129,0.040816
739.8766,0.040402
741.7402,0.040219
743.6039,0.040300
745.4676,0.040285
747.3312,0.039427
749.1949,0.038567
751.0586,0.038411
752.9222,0.038117
754.7859,0.037935
756.6496,0.037880
758.5132,0.037705
760.3769,0.037771
762.2406,0.037608
764.1043,0.037735
765.9679,0.037908
767.8316,0.038321
769.6953,0.038585
771.5589,0.037948
773.4226,0.037462
775.2863,0.037445
777.1499,0.037396
779.0136,0.037138
780.8773,0.036543
782.7409,0.036185
784.6046,0.035778
786.4683,0.035496
788.3320,0.034989
790.1956,0.034702
792.0593,0.034881
793.9230,0.034622
795.7866,0.034364
797.6503,0.034414
799.5140,0.034692
801.3776,0.034839
803.2413,0.035027
805.1050,0.035116
806.9686,0.034999
808.8323,0.034770
810.6960,0.034656
812.5596,0.034687
814.4233,0.034358
816.2870,0.033871
818.1507,0.033525
820.0143,0.032909
821.8780,0.032424
823.7417,0.032295
825.6053,0.032097
827.4690,0.031884
829.3327,0.031756
831.1963,0.031703
833.0600,0.031462
834.9237,0.031311
836.7873,0.031119
838.6510,0.030640
840.5147,0.030396
842.3784,0.030282
844.2420,0.030297
846.1057,0.030363
847.9694,0.030389
849.8330,0.030630
851.6967,0.030887
853.5604,0.030752
855.4240,0.030673
857.2877,0.030854
859.1514,0.031117
861.0150,0.031144
862.8787,0.031404
864.7424,0.032158
866.6060,0.032710
868.4697,0.032777
870.3334,0.032880
872.1971,0.033108
874.0607,0.033285
875.9244,0.033385
877.7881,0.033474
879.6517,0.033290
881.5154,0.033230
883.3791,0.033248
885.2427,0.033163
887.1064,0.033363
888.9701,0.033785
890.8337,0.034123
892.6974,0.034416
894.5611,0.034525
896.4247,0.034470
898.2884,0.034577
900.1521,0.034741
902.0158,0.034752
903.8794,0.034657
905.7431,0.034699
907.6068,0.035164
909.4704,0.035577
911.3341,0.035887
913.1978,0.036230
915.0614,0.036719
916.9251,0.037117
918.7888,0.037496
920.6524,0.037830
922.5161,0.038050
924.3798,0.038256
926.2435,0.038312
928.1071,0.038275
929.9708,0.038326
931.8345,0.038575
933.6981,0.038978
935.5618,0.039384
937.4255,0.039846
939.2891,0.040381
941.1528,0.041038
943.0165,0.041713
944.8801,0.042360
946.7438,0.042998
948.6075,0.043419
950.4711,0.043658
952.3348,0.044042
954.1985,0.044554
956.0622,0.045174
957.9258,0.046035
959.7895,0.047181
961.6532,0.048644
963.5168,0.050142
965.3805,0.051264
967.2442,0.052076
969.1078,0.052343
970.9715,0.052426
972.8352,0.052676
974.6988,0.053125
976.5625,0.053858
978.4262,0.054793
980.2899,0.055686
982.1535,0.056739
984.0172,0.058050
985.8809,0.059255
987.7445,0.060313
989.6082,0.061433
991.4719,0.062482
993.3355,0.063573
995.1992,0.064705
997.0629,0.065911
998.9265,0.066993
1000.7902,0.068060
1002.6539,0.069168
1004.5175,0.070360
1006.3812,0.071790
1008.2449,0.073395
1010.1086,0.074995
1011.9722,0.076730
1013.8359,0.078485
1015.6996,0.080153
1017.5632,0.081549
1019.4269,0.082693
1021.2906,0.083515
1023.1542,0.084172
1025.0179,0.084612
1026.8816,0.084970
1028.7452,0.085276
1030.6089,0.085484
1032.4726,0.085512
1034.3362,0.085373
1036.1999,0.084956
1038.0636,0.084344
1039.9273,0.083533
1041.7909,0.082750
1043.6546,0.082088
1045.5183,0.081551
1047.3819,0.081208
1049.2456,0.081067
1051.1093,0.081050
1052.9729,0.081076
1054.8366,0.081127
1056.7003,0.081137
1058.5639,0.081063
1060.4276,0.081061
1062.2913,0.081092
1064.1550,0.081131
1066.0186,0.081072
1067.8823,0.080976
1069.7460,0.080749
1071.6096,0.080289
1073.4733,0.079476
1075.3370,0.078488
1077.2006,0.077134
1079.0643,0.075540
1080.9280,0.073783
1082.7916,0.071877
1084.6553,0.069950
1086.5190,0.068312
1088.3826,0.067029
1090.2463,0.066006
1092.1100,0.065109
1093.9737,0.064284
1095.8373,0.063563
1097.7010,0.062987
1099.5647,0.062442
1101.4283,0.062022
1103.2920,0.061724
1105.1557,0.061499
1107.0193,0.061284
1108.8830,0.061166
1110.7467,0.061065
1112.6103,0.060905
1114.4740,0.060638
1116.3377,0.060179
1118.2014,0.059639
1120.0650,0.059007
1121.9287,0.058129
1123.7924,0.057324
1125.6560,0.056571
1127.5197,0.055767
1129.3834,0.055029
1131.2470,0.054401
1133.1107,0.053854
1134.9744,0.053459
1136.8380,0.053125
1138.7017,0.052815
1140.5654,0.052633
1142.4290,0.052688
1144.2927,0.052882
1146.1564,0.053105
1148.0201,0.053216
1149.8837,0.053390
1151.7474,0.053501
1153.6111,0.053381
1155.4747,0.053203
1157.3384,0.052972
1159.2021,0.052610
1161.0657,0.052119
1162.9294,0.051416
1164.7931,0.050570
1166.6567,0.049521
1168.5204,0.048371
1170.3841,0.047074
1172.2477,0.045662
1174.1114,0.044244
1175.9751,0.042950
1177.8388,0.041851
1179.7024,0.041087
1181.5661,0.040556
1183.4298,0.040300
1185.2934,0.040275
1187.1571,0.040357
1189.0208,0.040562
1190.8844,0.040967
1192.7481,0.041485
1194.6118,0.042050
1196.4754,0.042674
1198.3391,0.043423
1200.2028,0.044209
1202.0665,0.045030
1203.9301,0.045707
1205.7938,0.046199
1207.6575,0.046593
1209.5211,0.046951
1211.3848,0.047381
1213.2485,0.047796
1215.1121,0.048248
1216.9758,0.048759
1218.8395,0.049366
1220.7031,0.050000
1222.5668,0.050622
1224.4305,0.051207
1226.2941,0.051677
1228.1578,0.052109
1230.0215,0.052456
1231.8852,0.052780
1233.7488,0.053053
1235.6125,0.053087
1237.4762,0.053003
1239.3398,0.052829
1241.2035,0.052575
1243.0672,0.052313
1244.9308,0.051836
1246.7945,0.051252
1248.6582,0.050661
1250.5218,0.050105
1252.3855,0.049654
1254.2492,0.049231
1256.1129,0.048708
1257.9765,0.048265
1259.8402,0.047895
1261.7039,0.047514
1263.5675,0.047115
1265.4312,0.046748
1267.2949,0.046450
1269.1585,0.046271
1271.0222,0.046148
1272.8859,0.045885
1274.7495,0.045563
1276.6132,0.045381
1278.4769,0.045248
1280.3405,0.045066
1282.2042,0.044854
1284.0679,0.044751
1285.9316,0.044694
1287.7952,0.044722
1289.6589,0.044770
1291.5226,0.044924
1293.3862,0.045100
1295.2499,0.045330
1297.1136,0.045644
1298.9772,0.046002
1300.8409,0.046367
1302.7046,0.046793
1304.5682,0.047163
1306.4319,0.047309
1308.2956,0.047348
1310.1592,0.047430
1312.0229,0.047634
1313.8866,0.047710
1315.7503,0.047540
1317.6139,0.047420
1319.4776,0.047310
1321.3413,0.046944
1323.2049,0.046540
1325.0686,0.046134
1326.9323,0.045747
1328.7959,0.045613
1330.6596,0.045567
1332.5233,0.045502
1334.3869,0.045319
1336.2506,0.045284
1338.1143,0.045799
1339.9780,0.046570
1341.8416,0.046396
1343.7053,0.046044
1345.5690,0.045942
1347.4326,0.045952
1349.2963,0.045987
1351.1600,0.045904
1353.0236,0.046009
1354.8873,0.046300
1356.7510,0.046344
1358.6146,0.046355
1360.4783,0.046999
1362.3420,0.048540
1364.2056,0.049470
1366.0693,0.049845
1367.9330,0.050831
1369.7967,0.051552
1371.6603,0.051928
1373.5240,0.053114
1375.3877,0.054061
1377.2513,0.054049
1379.1150,0.053994
1380.9787,0.053590
1382.8423,0.052983
1384.7060,0.052492
1386.5697,0.053003
1388.4333,0.053325
1390.2970,0.052613
1392.1607,0.052202
1394.0244,0.052679
1395.8880,0.053115
1397.7517,0.053322
1399.6154,0.053606
1401.4790,0.052832
1403.3427,0.052518
1405.2064,0.052691
1407.0700,0.052439
1408.9337,0.052054
1410.7974,0.051902
1412.6610,0.051616
1414.5247,0.051023
1416.3884,0.050667
1418.2520,0.051732
1420.1157,0.052231
1421.9794,0.051342
1423.8431,0.051402
1425.7067,0.051276
1427.5704,0.051332
1429.4341,0.052298
1431.2977,0.052937
1433.1614,0.052810
1435.0251,0.053741
1436.8887,0.056301
1438.7524,0.056335
1440.6161,0.055733
1442.4797,0.055675
1444.3434,0.055575
1446.2071,0.055848
1448.0707,0.056397
1449.9344,0.055853
1451.7981,0.054788
1453.6618,0.053421
1455.5254,0.053215
1457.3891,0.054430
1459.2528,0.052821
1461.1164,0.050648
1462.9801,0.049656
1464.8438,0.049565
1466.7074,0.047997
1468.5711,0.045608
1470.4348,0.043924
1472.2984,0.043574
1474.1621,0.042490
1476.0258,0.041619
1477.8895,0.040853
1479.7531,0.040429
1481.6168,0.040649
1483.4805,0.040507
1485.3441,0.040742
1487.2078,0.042305
1489.0715,0.045269
1490.9351,0.047367
1492.7988,0.047089
1494.6625,0.048108
1496.5261,0.051463
1498.3898,0.054244
1500.2535,0.055241
1502.1171,0.054983
1503.9808,0.055149
1505.8445,0.059628
1507.7082,0.066670
1509.5718,0.066619
1511.4355,0.066570
1513.2992,0.066972
1515.1628,0.067663
1517.0265,0.068757
1518.8902,0.068652
1520.7538,0.069997
1522.6175,0.071305
1524.4812,0.071072
1526.3448,0.071808
1528.2085,0.071976
1530.0722,0.071559
1531.9359,0.071716
1533.7995,0.072419
1535.6632,0.070896
1537.5269,0.069862
1539.3905,0.070434
1541.2542,0.070918
1543.1179,0.070519
1544.9815,0.069990
1546.8452,0.068143
1548.7089,0.066650
1550.5725,0.065068
1552.4362,0.063119
1554.2999,0.061114
1556.1635,0.058451
1558.0272,0.058162
1559.8909,0.058247
1561.7546,0.055965
1563.6182,0.054675
1565.4819,0.053155
1567.3456,0.051642
1569.2092,0.051085
1571.0729,0.049644
1572.9366,0.048207
1574.8002,0.047992
1576.6639,0.048173
1578.5276,0.047216
1580.3912,0.046607
1582.2549,0.046302
1584.1186,0.046117
1585.9822,0.046215
1587.8459,0.046292
1589.7096,0.046688
1591.5733,0.047346
1593.4369,0.048229
1595.3006,0.049350
1597.1643,0.050369
1599.0279,0.051314
1600.8916,0.052491
1602.7553,0.053977
1604.6189,0.055521
1606.4826,0.056970
1608.3463,0.058779
1610.2099,0.060374
1612.0736,0.061613
1613.9373,0.062776
1615.8010,0.064852
1617.6646,0.066992
1619.5283,0.067693
1621.3920,0.068483
1623.2556,0.069846
1625.1193,0.070610
1626.9830,0.071332
1628.8466,0.071709
1630.7103,0.071321
1632.5740,0.070860
1634.4376,0.070940
1636.3013,0.070707
1638.1650,0.069713
1640.0286,0.068978
1641.8923,0.067778
1643.7560,0.066322
1645.6197,0.065578
1647.4833,0.063969
1649.3470,0.061711
1651.2107,0.060913
1653.0743,0.059992
1654.9380,0.057250
1656.8017,0.056056
1658.6653,0.054660
1660.5290,0.052902
1662.3927,0.050880
1664.2563,0.048429
1666.1200,0.046550
1667.9837,0.045212
1669.8474,0.043151
1671.7110,0.040988
1673.5747,0.039552
1675.4384,0.037751
1677.3020,0.035333
1679.1657,0.033838
1681.0294,0.031956
1682.8930,0.030274
1684.7567,0.027781
1686.6204,0.025347
1688.4840,0.024374
1690.3477,0.022501
1692.2114,0.020533
1694.0750,0.019239
1695.9387,0.016940
1697.8024,0.014182
1699.6661,0.013184
1701.5297,0.010550
1703.3934,0.009749
1705.2571,0.009740
1707.1207,0.008378
1708.9844,0.007677
1710.8481,0.007441
1712.7117,0.007576
1714.5754,0.007730
1716.4391,0.007339
1718.3027,0.006328
1720.1664,0.005951
1722.0301,0.006652
1723.8937,0.007207
1725.7574,0.007411
1727.6211,0.007881
1729.4848,0.008617
1731.3484,0.009569
1733.2121,0.011032
1735.0758,0.011937
1736.9394,0.012690
1738.8031,0.014679
1740.6668,0.015802
1742.5304,0.016236
1744.3941,0.016394
1746.2578,0.015917
1748.1214,0.014643
1749.9851,0.012703
1751.8488,0.010193
1753.7125,0.008255
1755.5761,0.007070
1757.4398,0.005169
1759.3035,0.003547
1761.1671,0.002719
1763.0308,0.001582
1764.8945,0.001229
1766.7581,0.001266
1768.6218,0.000928
1770.4855,0.000688
1772.3491,0.000297
1774.2128,-0.000493
1776.0765,-0.000251
1777.9401,0.000052
1779.8038,0.000197
1781.6675,0.000195
1783.5312,0.000255
1785.3948,0.000054
1787.2585,-0.000145
1789.1222,0.000076
1790.9858,0.000068
1792.8495,-0.000382
1794.7132,-0.000379
1796.5768,0.000007
1798.4405,0.000077
1800.3042,-0.000292
1802.1678,-0.000766
1804.0315,-0.000794
1805.8952,-0.000376
1807.7589,-0.000146
1809.6225,-0.000277
1811.4862,-0.000616
1813.3499,-0.000711
1815.2135,-0.000530
1817.0772,-0.000699
1818.9409,-0.000884
1820.8045,-0.000657
1822.6682,-0.000490
1824.5319,-0.000409
1826.3955,-0.000559
1828.2592,-0.000570
1830.1229,-0.000802
1831.9865,-0.001133
1833.8502,-0.000889
1835.7139,-0.000551
1837.5776,-0.000384
1839.4412,-0.000707
1841.3049,-0.001050
1843.1686,-0.000913
1845.0322,-0.001300
1846.8959,-0.001409
1848.7596,-0.000894
1850.6232,-0.000700
1852.4869,-0.000618
1854.3506,-0.000677
1856.2142,-0.000658
1858.0779,-0.000589
1859.9416,-0.000920
1861.8052,-0.001038
1863.6689,-0.000761
1865.5326,-0.000586
1867.3963,-0.000474
1869.2599,-0.000861
1871.1236,-0.001144
1872.9873,-0.000780
1874.8509,-0.000723
1876.7146,-0.000963
1878.5783,-0.000910
1880.4419,-0.000844
1882.3056,-0.001158
1884.1693,-0.000952
1886.0329,-0.000471
1887.8966,-0.000457
1889.7603,-0.000788
1891.6240,-0.001104
1893.4876,-0.001321
1895.3513,-0.001309
1897.2150,-0.000995
1899.0786,-0.000484
1900.9423,-0.000480
1902.8060,-0.000946
1904.6696,-0.001303
1906.5333,-0.001449
1908.3970,-0.001484
1910.2606,-0.000865
1912.1243,-0.000635
1913.9880,-0.000713
1915.8516,-0.000838
1917.7153,-0.000997
1919.5790,-0.001136
1921.4427,-0.001447
1923.3063,-0.001945
1925.1700,-0.001732
1927.0337,-0.001391
1928.8973,-0.001403
1930.7610,-0.001384
1932.6247,-0.001467
1934.4883,-0.001927
1936.3520,-0.001843
1938.2157,-0.001633
1940.0793,-0.001379
1941.9430,-0.001111
1943.8067,-0.001388
1945.6704,-0.001682
1947.5340,-0.001624
1949.3977,-0.001854
1951.2614,-0.001907
1953.1250,-0.002483
1954.9887,-0.002966
1956.8524,-0.003383
1958.7160,-0.003195
1960.5797,-0.003436
1962.4434,-0.004503
1964.3070,-0.004206
1966.1707,-0.003382
1968.0344,-0.003807
1969.8980,-0.003434
1971.7617,-0.002809
1973.6254,-0.002521
1975.4891,-0.002407
1977.3527,-0.003283
1979.2164,-0.003717
1981.0801,-0.003575
1982.9437,-0.003966
1984.8074,-0.003403
1986.6711,-0.002062
1988.5347,-0.001407
1990.3984,-0.001775
1992.2621,-0.001690
1994.1257,-0.002209
1995.9894,-0.002564
1997.8531,-0.002499
1999.7167,-0.003052
2001.5804,-0.003958
2003.4441,-0.004642
2005.3078,-0.004650
2007.1714,-0.004374
2009.0351,-0.003871
2010.8988,-0.003163
2012.7624,-0.003546
2014.6261,-0.003909
2016.4898,-0.003360
2018.3534,-0.002116
2020.2171,-0.002498
2022.0808,-0.004708
2023.9444,-0.006125
2025.8081,-0.004807
2027.6718,-0.003081
2029.5355,-0.003374
2031.3991,-0.003476
2033.2628,-0.002851
2035.1265,-0.002285
2036.9901,-0.001489
2038.8538,-0.001180
2040.7175,-0.001593
2042.5811,-0.001770
2044.4448,-0.002095
2046.3085,-0.001026
2048.1721,0.000731
2050.0358,0.001100
2051.8995,0.000665
2053.7631,-0.000205
2055.6268,0.000210
2057.4905,0.001202
2059.3542,0.001415
2061.2178,0.001254
2063.0815,0.000834
2064.9452,0.000593
2066.8088,0.001011
2068.6725,0.000895
2070.5362,0.000481
2072.3998,0.000770
2074.2635,0.001026
2076.1272,-0.000031
2077.9908,-0.001033
2079.8545,-0.000715
2081.7182,-0.000046
2083.5819,-0.000020
2085.4455,-0.000651
2087.3092,-0.001186
2089.1729,-0.000900
2091.0365,-0.000835
2092.9002,-0.001013
2094.7639,-0.000727
2096.6275,-0.000745
2098.4912,-0.001331
2100.3549,-0.001391
2102.2185,-0.001455
2104.0822,-0.001674
2105.9459,-0.001318
2107.8095,-0.000749
2109.6732,-0.000551
2111.5369,-0.000392
2113.4006,-0.000839
2115.2642,-0.001573
2117.1279,-0.001469
2118.9916,-0.000855
2120.8552,-0.000847
2122.7189,-0.001494
2124.5826,-0.001933
2126.4462,-0.001488
2128.3099,-0.001734
2130.1736,-0.002388
2132.0372,-0.002941
2133.9009,-0.003727
2135.7646,-0.003817
2137.6282,-0.003651
2139.4919,-0.003447
2141.3556,-0.002359
2143.2193,-0.002679
2145.0829,-0.003558
2146.9466,-0.004189
2148.8103,-0.004921
2150.6739,-0.004757
2152.5376,-0.004429
2154.4013,-0.004797
2156.2649,-0.004715
2158.1286,-0.004619
2159.9923,-0.004263
2161.8559,-0.004149
2163.7196,-0.003942
2165.5833,-0.003078
2167.4470,-0.002662
2169.3106,-0.002356
2171.1743,-0.002570
2173.0380,-0.003009
2174.9016,-0.003170
2176.7653,-0.002648
2178.6290,-0.001816
2180.4926,-0.002355
2182.3563,-0.002728
2184.2200,-0.002068
2186.0836,-0.001185
2187.9473,-0.000883
2189.8110,-0.001201
2191.6746,-0.001894
2193.5383,-0.002302
2195.4020,-0.002655
2197.2657,-0.002004
2199.1293,-0.001478
2200.9930,-0.001965
2202.8567,-0.002089
2204.7203,-0.001329
2206.5840,-0.001548
2208.4477,-0.002230
2210.3113,-0.001897
2212.1750,-0.001323
2214.0387,-0.001399
2215.9023,-0.001338
2217.7660,-0.001398
2219.6297,-0.001171
2221.4934,-0.000462
2223.3570,0.000206
2225.2207,0.000469
2227.0844,0.000033
2228.9480,-0.000838
2230.8117,-0.000427
2232.6754,-0.000300
2234.5390,-0.000921
2236.4027,-0.000764
2238.2664,-0.000008
2240.1300,-0.000262
2241.9937,-0.000975
2243.8574,-0.000982
2245.7210,-0.000045
2247.5847,0.000434
2249.4484,0.000030
2251.3121,-0.000244
2253.1757,-0.000279
2255.0394,-0.000398
2256.9031,-0.000263
2258.7667,0.000140
2260.6304,0.000587
2262.4941,0.000233
2264.3577,-0.000129
2266.2214,0.000412
2268.0851,0.000869
2269.9487,0.000793
2271.8124,0.000517
2273.6761,0.000136
2275.5397,0.000081
2277.4034,0.000540
2279.2671,0.001222
2281.1308,0.001338
2282.9944,0.001279
2284.8581,0.001349
2286.7218,0.001609
2288.5854,0.001659
2290.4491,0.001459
2292.3128,0.001179
2294.1764,0.001118
2296.0401,0.001192
2297.9038,0.001398
2299.7674,0.001547
2301.6311,0.001729
2303.4948,0.001668
2305.3585,0.001350
2307.2221,0.001195
2309.0858,0.001201
2310.9495,0.001109
2312.8131,0.001120
2314.6768,0.001411
2316.5405,0.001707
2318.4041,0.001847
2320.2678,0.001779
2322.1315,0.001633
2323.9951,0.001648
2325.8588,0.001543
2327.7225,0.001244
2329.5861,0.001232
2331.4498,0.001206
2333.3135,0.000711
2335.1772,0.000738
2337.0408,0.001278
2338.9045,0.001426
2340.7682,0.001173
2342.6318,0.001201
2344.4955,0.001074
2346.3592,0.000481
2348.2228,0.000390
2350.0865,0.001096
2351.9502,0.001349
2353.8138,0.000895
2355.6775,0.000634
2357.5412,0.000704
2359.4049,0.000676
2361.2685,0.000401
2363.1322,0.000541
2364.9959,0.000856
2366.8595,0.000858
2368.7232,0.001270
2370.5869,0.001818
2372.4505,0.002006
2374.3142,0.001988
2376.1779,0.002151
2378.0415,0.002096
2379.9052,0.001848
2381.7689,0.002185
2383.6325,0.002607
2385.4962,0.002362
2387.3599,0.002163
2389.2236,0.002303
2391.0872,0.002336
2392.9509,0.002242
2394.8146,0.002336
2396.6782,0.002539
2398.5419,0.002771
2400.4056,0.002927
2402.2692,0.002741
2404.1329,0.002425
2405.9966,0.002630
2407.8602,0.002747
2409.7239,0.002487
2411.5876,0.002662
2413.4512,0.003079
2415.3149,0.003132
2417.1786,0.002887
2419.0423,0.002722
2420.9059,0.002942
2422.7696,0.003112
2424.6333,0.003176
2426.4969,0.003078
2428.3606,0.002894
2430.2243,0.003047
2432.0879,0.003396
2433.9516,0.003459
2435.8153,0.003391
2437.6789,0.003475
2439.5426,0.003545
2441.4063,0.003342
2443.2700,0.003279
2445.1336,0.003520
2446.9973,0.003711
2448.8610,0.003704
2450.7246,0.003499
2452.5883,0.003532
2454.4520,0.003822
2456.3156,0.003848
2458.1793,0.003697
2460.0430,0.003455
2461.9066,0.003611
2463.7703,0.003995
2465.6340,0.004081
2467.4976,0.004146
2469.3613,0.004143
2471.2250,0.004022
2473.0887,0.004163
2474.9523,0.004362
2476.8160,0.004285
2478.6797,0.004155
2480.5433,0.004149
2482.4070,0.004268
2484.2707,0.004649
2486.1343,0.004773
2487.9980,0.004562
2489.8617,0.004307
2491.7253,0.004160
2493.5890,0.004416
2495.4527,0.004643
2497.3164,0.004540
2499.1800,0.004622
2501.0437,0.004701
2502.9074,0.004594
2504.7710,0.004485
2506.6347,0.004654
2508.4984,0.004656
2510.3620,0.004645
2512.2257,0.005173
2514.0894,0.005360
2515.9530,0.004950
2517.8167,0.004953
2519.6804,0.005273
2521.5440,0.005365
2523.4077,0.005114
2525.2714,0.004898
2527.1351,0.005042
2528.9987,0.005353
2530.8624,0.005387
2532.7261,0.005387
2534.5897,0.005300
2536.4534,0.005287
2538.3171,0.005320
2540.1807,0.005398
2542.0444,0.005364
2543.9081,0.005550
2545.7717,0.005794
2547.6354,0.005587
2549.4991,0.005637
2551.3627,0.006002
2553.2264,0.005906
2555.0901,0.005814
2556.9538,0.005924
2558.8174,0.006052
2560.6811,0.006111
2562.5448,0.006313
2564.4084,0.006516
2566.2721,0.006705
2568.1358,0.006804
2569.9994,0.006863
2571.8631,0.006772
2573.7268,0.006712
2575.5904,0.006942
2577.4541,0.006907
2579.3178,0.006917
2581.1815,0.007109
2583.0451,0.006956
2584.9088,0.006866
2586.7725,0.006915
2588.6361,0.007217
2590.4998,0.007465
2592.3635,0.007529
2594.2271,0.007723
2596.0908,0.007775
2597.9545,0.007648
2599.8181,0.007696
2601.6818,0.007797
2603.5455,0.007816
2605.4091,0.007866
2607.2728,0.007914
2609.1365,0.008161
2611.0002,0.008517
2612.8638,0.008570
2614.7275,0.008566
2616.5912,0.008546
2618.4548,0.008609
2620.3185,0.008723
2622.1822,0.008683
2624.0458,0.008758
2625.9095,0.009011
2627.7732,0.009025
2629.6368,0.008958
2631.5005,0.009024
2633.3642,0.009305
2635.2279,0.009576
2637.0915,0.009607
2638.9552,0.009532
2640.8189,0.009666
2642.6825,0.009857
2644.5462,0.009879
2646.4099,0.009749
2648.2735,0.009853
2650.1372,0.009959
2652.0009,0.010025
2653.8645,0.010314
2655.7282,0.010373
2657.5919,0.010183
2659.4555,0.010088
2661.3192,0.010122
2663.1829,0.010270
2665.0466,0.010390
2666.9102,0.010421
2668.7739,0.010501
2670.6376,0.010666
2672.5012,0.010609
2674.3649,0.010661
2676.2286,0.010797
2678.0922,0.010802
2679.9559,0.010891
2681.8196,0.010942
2683.6832,0.010956
2685.5469,0.011077
2687.4106,0.011110
2689.2742,0.011060
2691.1379,0.011218
2693.0016,0.011395
2694.8653,0.011446
2696.7289,0.011588
2698.5926,0.011664
2700.4563,0.011736
2702.3199,0.011699
2704.1836,0.011503
2706.0473,0.011677
2707.9109,0.012029
2709.7746,0.012051
2711.6383,0.012049
2713.5019,0.012163
2715.3656,0.012235
2717.2293,0.012361
2719.0930,0.012607
2720.9566,0.012626
2722.8203,0.012579
2724.6840,0.012703
2726.5476,0.012918
2728.4113,0.013128
2730.2750,0.013216
2732.1386,0.013186
2734.0023,0.013230
2735.8660,0.013273
2737.7296,0.013341
2739.5933,0.013545
2741.4570,0.013769
2743.3206,0.013807
2745.1843,0.013869
2747.0480,0.013990
2748.9117,0.014059
2750.7753,0.014074
2752.6390,0.014076
2754.5027,0.014246
2756.3663,0.014574
2758.2300,0.014618
2760.0937,0.014644
2761.9573,0.014737
2763.8210,0.014685
2765.6847,0.014803
2767.5483,0.014965
2769.4120,0.015053
2771.2757,0.015187
2773.1394,0.015267
2775.0030,0.015429
2776.8667,0.015653
2778.7304,0.016009
2780.5940,0.016136
2782.4577,0.015979
2784.3214,0.016057
2786.1850,0.016468
2788.0487,0.016882
2789.9124,0.017024
2791.7760,0.017077
2793.6397,0.017204
2795.5034,0.017271
2797.3670,0.017256
2799.2307,0.017265
2801.0944,0.017438
2802.9581,0.017679
2804.8217,0.018016
2806.6854,0.018256
2808.5491,0.018368
2810.4127,0.018425
2812.2764,0.018565
2814.1401,0.018878
2816.0037,0.019064
2817.8674,0.019263
2819.7311,0.019708
2821.5947,0.020087
2823.4584,0.020369
2825.3221,0.020669
2827.1857,0.020949
2829.0494,0.021129
2830.9131,0.021297
2832.7768,0.021784
2834.6404,0.022515
2836.5041,0.023316
2838.3678,0.024239
2840.2314,0.025071
2842.0951,0.025992
2843.9588,0.027354
2845.8224,0.028974
2847.6861,0.030226
2849.5498,0.031191
2851.4134,0.031988
2853.2771,0.032288
2855.1408,0.031763
2857.0045,0.030832
2858.8681,0.029820
2860.7318,0.028866
2862.5955,0.028414
2864.4591,0.028228
2866.3228,0.028092
2868.1865,0.028117
2870.0501,0.028254
2871.9138,0.028474
2873.7775,0.028415
2875.6411,0.028368
2877.5048,0.028304
2879.3685,0.028048
2881.2321,0.027711
2883.0958,0.027428
2884.9595,0.027517
2886.8232,0.027979
2888.6868,0.028361
2890.5505,0.028757
2892.4142,0.029063
2894.2778,0.029268
2896.1415,0.029776
2898.0052,0.030464
2899.8688,0.031106
2901.7325,0.031677
2903.5962,0.032144
2905.4598,0.033052
2907.3235,0.033978
2909.1872,0.034531
2911.0509,0.035158
2912.9145,0.036178
2914.7782,0.037342
2916.6419,0.038230
2918.5055,0.039034
2920.3692,0.039887
2922.2329,0.040144
2924.0965,0.039778
2925.9602,0.039173
2927.8239,0.038514
2929.6875,0.037695
2931.5512,0.036442
2933.4149,0.035005
2935.2785,0.034025
2937.1422,0.033050
2939.0059,0.031684
2940.8696,0.030396
2942.7332,0.029608
2944.5969,0.029223
2946.4606,0.028992
2948.3242,0.028727
2950.1879,0.028649
2952.0516,0.028732
2953.9152,0.028528
2955.7789,0.028213
2957.6426,0.027850
2959.5062,0.027189
2961.3699,0.026827
2963.2336,0.026567
2965.0972,0.025846
2966.9609,0.024965
2968.8246,0.024132
2970.6883,0.023262
2972.5519,0.022710
2974.4156,0.022304
2976.2793,0.021880
2978.1429,0.021491
2980.0066,0.020984
2981.8703,0.020367
2983.7339,0.019796
2985.5976,0.019366
2987.4613,0.019177
2989.3249,0.019088
2991.1886,0.018883
2993.0523,0.018600
2994.9160,0.018389
2996.7796,0.018189
2998.6433,0.018243
3000.5070,0.018459
3002.3706,0.018314
3004.2343,0.018149
3006.0980,0.018421
3007.9616,0.018553
3009.8253,0.018244
3011.6890,0.018043
3013.5526,0.018297
3015.4163,0.018458
3017.2800,0.018392
3019.1436,0.018317
3021.0073,0.018192
3022.8710,0.017987
3024.7347,0.018071
3026.5983,0.018255
3028.4620,0.018160
3030.3257,0.018113
3032.1893,0.018447
3034.0530,0.018723
3035.9167,0.018574
3037.7803,0.018399
3039.6440,0.018286
3041.5077,0.018121
3043.3713,0.018388
3045.2350,0.018715
3047.0987,0.018669
3048.9624,0.018707
3050.8260,0.018811
3052.6897,0.018755
3054.5534,0.018739
3056.4170,0.018702
3058.2807,0.018661
3060.1444,0.018678
3062.0080,0.018801
3063.8717,0.018852
3065.7354,0.018667
3067.5990,0.018485
3069.4627,0.018582
3071.3264,0.018473
3073.1900,0.018108
3075.0537,0.017994
3076.9174,0.017939
3078.7811,0.017536
3080.6447,0.017128
3082.5084,0.016916
3084.3721,0.016854
3086.2357,0.016864
3088.0994,0.016894
3089.9631,0.016655
3091.8267,0.016110
3093.6904,0.015716
3095.5541,0.015602
3097.4177,0.015410
3099.2814,0.015490
3101.1451,0.015682
3103.0087,0.015588
3104.8724,0.015048
3106.7361,0.014311
3108.5998,0.014037
3110.4634,0.014268
3112.3271,0.014187
3114.1908,0.013931
3116.0544,0.014029
3117.9181,0.014108
3119.7818,0.014035
3121.6454,0.013925
3123.5091,0.013734
3125.3728,0.013833
3127.2364,0.013803
3129.1001,0.013478
3130.9638,0.013466
3132.8275,0.013360
3134.6911,0.013083
3136.5548,0.013519
3138.4185,0.013886
3140.2821,0.013571
3142.1458,0.013451
3144.0095,0.013771
3145.8731,0.013851
3147.7368,0.013560
3149.6005,0.013641
3151.4641,0.013758
3153.3278,0.013617
3155.1915,0.013913
3157.0551,0.013897
3158.9188,0.013505
3160.7825,0.013456
3162.6462,0.013475
3164.5098,0.013500
3166.3735,0.013560
3168.2372,0.013516
3170.1008,0.013890
3171.9645,0.014131
3173.8282,0.013833
3175.6918,0.014034
3177.5555,0.014500
3179.4192,0.014194
3181.2828,0.013953
3183.1465,0.014259
3185.0102,0.014449
3186.8739,0.014517
3188.7375,0.014773
3190.6012,0.014530
3192.4649,0.014030
3194.3285,0.014057
3196.1922,0.014102
3198.0559,0.014075
3199.9195,0.013965
3201.7832,0.013768
3203.6469,0.014107
3205.5105,0.014234
3207.3742,0.013935
3209.2379,0.014008
3211.1015,0.014237
3212.9652,0.014110
3214.8289,0.014164
3216.6926,0.014199
3218.5562,0.014086
3220.4199,0.014045
3222.2836,0.013974
3224.1472,0.014055
3226.0109,0.014053
3227.8746,0.013600
3229.7382,0.013471
3231.6019,0.014145
3233.4656,0.014739
3235.3292,0.014662
3237.1929,0.014278
3239.0566,0.014036
3240.9202,0.014227
3242.7839,0.014482
3244.6476,0.014769
3246.5113,0.014858
3248.3749,0.014517
3250.2386,0.014497
3252.1023,0.014916
3253.9659,0.015284
3255.8296,0.015550
3257.6933,0.015272
3259.5569,0.015099
3261.4206,0.015582
3263.2843,0.016046
3265.1479,0.015685
3267.0116,0.015176
3268.8753,0.015084
3270.7390,0.014978
3272.6026,0.015282
3274.4663,0.015775
3276.3300,0.015545
3278.1936,0.015432
3280.0573,0.015508
3281.9210,0.015395
3283.7846,0.014908
3285.6483,0.014130
3287.5120,0.013805
3289.3756,0.013947
3291.2393,0.014062
3293.1030,0.014089
3294.9666,0.013778
3296.8303,0.013218
3298.6940,0.012643
3300.5577,0.012143
3302.4213,0.011832
3304.2850,0.011974
3306.1487,0.012057
3308.0123,0.011742
3309.8760,0.011165
3311.7397,0.010887
3313.6033,0.010939
3315.4670,0.010411
3317.3307,0.009693
3319.1943,0.009242
3321.0580,0.008817
3322.9217,0.008925
3324.7854,0.009598
3326.6490,0.009697
3328.5127,0.009065
3330.3764,0.008496
3332.2400,0.008114
3334.1037,0.008167
3335.9674,0.008129
3337.8310,0.007729
3339.6947,0.007384
3341.5584,0.007055
3343.4220,0.006746
3345.2857,0.006672
3347.1494,0.006697
3349.0130,0.006542
3350.8767,0.006160
3352.7404,0.006219
3354.6041,0.006384
3356.4677,0.006193
3358.3314,0.005718
3360.1951,0.005118
3362.0587,0.004858
3363.9224,0.005050
3365.7861,0.005341
3367.6497,0.005202
3369.5134,0.004963
3371.3771,0.004849
3373.2407,0.004476
3375.1044,0.004180
3376.9681,0.004093
3378.8317,0.004133
3380.6954,0.004052
3382.5591,0.003940
3384.4228,0.003788
3386.2864,0.003388
3388.1501,0.003290
3390.0138,0.003597
3391.8774,0.003412
3393.7411,0.003283
3395.6048,0.003337
3397.4684,0.003263
3399.3321,0.003023
3401.1958,0.002675
3403.0594,0.002995
3404.9231,0.003315
3406.7868,0.002959
3408.6505,0.002830
3410.5141,0.003066
3412.3778,0.002880
3414.2415,0.002410
3416.1051,0.002039
3417.9688,0.002083
3419.8325,0.002347
3421.6961,0.002222
3423.5598,0.002096
3425.4235,0.001725
3427.2871,0.001536
3429.1508,0.002323
3431.0145,0.002642
3432.8781,0.002215
3434.7418,0.002057
3436.6055,0.001680
3438.4692,0.001489
3440.3328,0.001808
3442.1965,0.001890
3444.0602,0.001432
3445.9238,0.001314
3447.7875,0.001667
3449.6512,0.001521
3451.5148,0.001296
3453.3785,0.001172
3455.2422,0.000947
3457.1058,0.001230
3458.9695,0.001444
3460.8332,0.001014
3462.6969,0.000602
3464.5605,0.000536
3466.4242,0.000577
3468.2879,0.000562
3470.1515,0.000829
3472.0152,0.001413
3473.8789,0.001460
3475.7425,0.001206
3477.6062,0.000768
3479.4699,0.000110
3481.3335,-0.000087
3483.1972,0.000149
3485.0609,0.000207
3486.9245,0.000219
3488.7882,0.000058
3490.6519,0.000183
3492.5156,0.000468
3494.3792,0.000326
3496.2429,0.000058
3498.1066,0.000035
3499.9702,-0.000008
3501.8339,-0.000134
3503.6976,0.000041
3505.5612,0.000110
3507.4249,-0.000138
3509.2886,-0.000297
3511.1522,-0.000338
3513.0159,0.000162
3514.8796,0.000557
3516.7432,0.000183
3518.6069,-0.000416
3520.4706,-0.000837
3522.3343,-0.000996
3524.1979,-0.000654
3526.0616,-0.000424
3527.9253,-0.000746
3529.7889,-0.001164
3531.6526,-0.001300
3533.5163,-0.001136
3535.3799,-0.000797
3537.2436,-0.000885
3539.1073,-0.001116
3540.9709,-0.001560
3542.8346,-0.002313
3544.6983,-0.002315
3546.5620,-0.002157
3548.4256,-0.002350
3550.2893,-0.002391
3552.1530,-0.002528
3554.0166,-0.002604
3555.8803,-0.002626
3557.7440,-0.002813
3559.6076,-0.002943
3561.4713,-0.003046
3563.3350,-0.003082
3565.1986,-0.003044
3567.0623,-0.003209
3568.9260,-0.003323
3570.7896,-0.003279
3572.6533,-0.002757
3574.5170,-0.002866
3576.3807,-0.003634
3578.2443,-0.003934
3580.1080,-0.003369
3581.9717,-0.003174
3583.8353,-0.004150
3585.6990,-0.004440
3587.5627,-0.003921
3589.4263,-0.004403
3591.2900,-0.004659
3593.1537,-0.004239
3595.0173,-0.004173
3596.8810,-0.004799
3598.7447,-0.005406
3600.6084,-0.005116
3602.4720,-0.004730
3604.3357,-0.005123
3606.1994,-0.005183
3608.0630,-0.005017
3609.9267,-0.005589
3611.7904,-0.006020
3613.6540,-0.005436
3615.5177,-0.005121
3617.3814,-0.005442
3619.2450,-0.005646
3621.1087,-0.006117
3622.9724,-0.006629
3624.8360,-0.006327
3626.6997,-0.005594
3628.5634,-0.005219
3630.4271,-0.006324
3632.2907,-0.007314
3634.1544,-0.006481
3636.0181,-0.006184
3637.8817,-0.006367
3639.7454,-0.006435
3641.6091,-0.006268
3643.4727,-0.005947
3645.3364,-0.005529
3647.2001,-0.005184
3649.0637,-0.005870
3650.9274,-0.006718
3652.7911,-0.007032
3654.6547,-0.006538
3656.5184,-0.005696
3658.3821,-0.006156
3660.2458,-0.006153
3662.1094,-0.005533
3663.9731,-0.005501
3665.8368,-0.005731
3667.7004,-0.005718
3669.5641,-0.005462
3671.4278,-0.006284
3673.2914,-0.006884
3675.1551,-0.005478
3677.0188,-0.005479
3678.8824,-0.006342
3680.7461,-0.005513
3682.6098,-0.005200
3684.4735,-0.005077
3686.3371,-0.004718
3688.2008,-0.004385
3690.0645,-0.005635
3691.9281,-0.006652
3693.7918,-0.005976
3695.6555,-0.004898
3697.5191,-0.004307
3699.3828,-0.004330
3701.2465,-0.004364
3703.1101,-0.004992
3704.9738,-0.005357
3706.8375,-0.004662
3708.7011,-0.004146
3710.5648,-0.004336
3712.4285,-0.005131
3714.2922,-0.005481
3716.1558,-0.004935
3718.0195,-0.004120
3719.8832,-0.004249
3721.7468,-0.004760
3723.6105,-0.004671
3725.4742,-0.004409
3727.3378,-0.004443
3729.2015,-0.004645
3731.0652,-0.004504
3732.9288,-0.004404
3734.7925,-0.004865
3736.6562,-0.004767
3738.5199,-0.005170
3740.3835,-0.004555
3742.2472,-0.003472
3744.1109,-0.003344
3745.9745,-0.004794
3747.8382,-0.005520
3749.7019,-0.004027
3751.5655,-0.004797
3753.4292,-0.005847
3755.2929,-0.005468
3757.1565,-0.004619
3759.0202,-0.004103
3760.8839,-0.004213
3762.7475,-0.004645
3764.6112,-0.004065
3766.4749,-0.003968
3768.3386,-0.004599
3770.2022,-0.004173
3772.0659,-0.004561
3773.9296,-0.004852
3775.7932,-0.004109
3777.6569,-0.003794
3779.5206,-0.003839
3781.3842,-0.004334
3783.2479,-0.004228
3785.1116,-0.003807
3786.9752,-0.004262
3788.8389,-0.004526
3790.7026,-0.004016
3792.5662,-0.003823
3794.4299,-0.003908
3796.2936,-0.004092
3798.1573,-0.004600
3800.0209,-0.004296
3801.8846,-0.003587
3803.7483,-0.004703
3805.6119,-0.004574
3807.4756,-0.003496
3809.3393,-0.004368
3811.2029,-0.004372
3813.0666,-0.003515
3814.9303,-0.003422
3816.7939,-0.003262
3818.6576,-0.003848
3820.5213,-0.003494
3822.3850,-0.003972
3824.2486,-0.005503
3826.1123,-0.005003
3827.9760,-0.004368
3829.8396,-0.004215
3831.7033,-0.003535
3833.5670,-0.003488
3835.4306,-0.003846
3837.2943,-0.003740
3839.1580,-0.003794
3841.0216,-0.004382
3842.8853,-0.004260
3844.7490,-0.004133
3846.6126,-0.004530
3848.4763,-0.004218
3850.3400,-0.003162
3852.2037,-0.002525
3854.0673,-0.003859
3855.9310,-0.006400
3857.7947,-0.005472
3859.6583,-0.004046
3861.5220,-0.003405
3863.3857,-0.003453
3865.2493,-0.004171
3867.1130,-0.004619
3868.9767,-0.004193
3870.8403,-0.004062
3872.7040,-0.005126
3874.5677,-0.004327
3876.4314,-0.004350
3878.2950,-0.004651
3880.1587,-0.004118
3882.0224,-0.004407
3883.8860,-0.004498
3885.7497,-0.003417
3887.6134,-0.003804
3889.4770,-0.004208
3891.3407,-0.003590
3893.2044,-0.004221
3895.0680,-0.004399
3896.9317,-0.003767
3898.7954,-0.003454
3900.6590,-0.003256
3902.5227,-0.003731
3904.3864,-0.004120
3906.2501,-0.004736
3908.1137,-0.004855
3909.9774,-0.004122
3911.8411,-0.003474
3913.7047,-0.003300
3915.5684,-0.003411
3917.4321,-0.003631
3919.2957,-0.004050
3921.1594,-0.004063
3923.0231,-0.004039
3924.8867,-0.003825
3926.7504,-0.003718
3928.6141,-0.003848
3930.4777,-0.003635
3932.3414,-0.003883
3934.2051,-0.004447
3936.0688,-0.004291
3937.9324,-0.003448
3939.7961,-0.003152
3941.6598,-0.003516
3943.5234,-0.004174
3945.3871,-0.004400
3947.2508,-0.003807
3949.1144,-0.003644
3950.9781,-0.004088
3952.8418,-0.004036
3954.7054,-0.003574
3956.5691,-0.003512
3958.4328,-0.003694
3960.2965,-0.003492
3962.1601,-0.003527
3964.0238,-0.004011
3965.8875,-0.004037
3967.7511,-0.003695
3969.6148,-0.003600
3971.4785,-0.003420
3973.3421,-0.003676
3975.2058,-0.003994
3977.0695,-0.003907
3978.9331,-0.003756
3980.7968,-0.003475
3982.6605,-0.003393
3984.5241,-0.003830
3986.3878,-0.003974
3988.2515,-0.003737
3990.1152,-0.003651
3991.9788,-0.003797
3993.8425,-0.003602
3995.7062,-0.003417
3997.5698,-0.003728
3999.4335,-0.004079
