Wavenumber,Intensity
650.4205,0.084083
652.2841,0.083979
654.1478,0.084538
656.0115,0.083237
657.8751,0.080748
659.7388,0.080149
661.6025,0.079878
663.4661,0.078001
665.3298,0.076909
667.1935,0.079564
669.0571,0.081756
670.9208,0.077942
672.7845,0.076019
674.6481,0.075721
676.5118,0.075156
678.3755,0.074355
680.2392,0.074213
682.1028,0.074231
683.9665,0.073229
685.8302,0.071625
687.6938,0.071848
689.5575,0.072506
691.4212,0.071524
693.2848,0.070161
695.1485,0.070751
697.0122,0.071932
698.8758,0.071503
700.7395,0.070403
702.6032,0.070448
704.4669,0.070243
706.3305,0.068926
708.1942,0.068019
710.0579,0.066835
711.9215,0.065039
713.7852,0.064565
715.6489,0.064715
717.5125,0.064316
719.3762,0.063527
721.2399,0.062827
723.1035,0.062466
724.9672,0.061943
726.8309,0.061396
728.6945,0.060786
730.5582,0.059988
732.4219,0.059629
734.2856,0.059612
736.1492,0.059288
738.0129,0.058908
739.8766,0.058192
741.7402,0.057826
743.6039,0.058218
745.4676,0.057975
747.3312,0.057444
749.1949,0.057136
751.0586,0.056344
752.9222,0.055500
754.7859,0.055425
756.6496,0.055238
758.5132,0.054662
760.3769,0.054307
762.2406,0.053815
764.1043,0.053570
765.9679,0.053660
767.8316,0.053215
769.6953,0.052444
771.5589,0.052142
773.4226,0.052228
775.2863,0.051768
777.1499,0.051172
779.0136,0.050914
780.8773,0.050337
782.7409,0.049550
784.6046,0.049078
786.4683,0.048970
788.3320,0.048471
790.1956,0.047707
792.0593,0.047339
793.9230,0.047042
795.7866,0.046847
797.6503,0.046653
799.5140,0.046477
801.3776,0.046339
803.2413,0.045945
805.1050,0.045870
806.9686,0.046088
808.8323,0.045929
810.6960,0.045212
812.5596,0.044729
814.4233,0.044885
816.2870,0.044988
818.1507,0.044641
820.0143,0.044132
821.8780,0.043664
823.7417,0.043236
825.6053,0.042955
827.4690,0.042698
829.3327,0.042263
831.1963,0.041844
833.0600,0.041510
834.9237,0.041171
836.7873,0.040605
838.6510,0.040227
840.5147,0.040076
842.3784,0.039636
844.2420,0.039245
846.1057,0.039270
847.9694,0.039253
849.8330,0.039198
851.6967,0.039125
853.5604,0.038879
855.4240,0.038692
857.2877,0.038568
859.1514,0.038443
861.0150,0.038368
862.8787,0.038221
864.7424,0.038082
866.6060,0.038161
868.4697,0.038222
870.3334,0.038071
872.1971,0.038015
874.0607,0.038140
875.9244,0.037985
877.7881,0.037542
879.6517,0.037280
881.5154,0.037072
883.3791,0.036736
885.2427,0.036387
887.1064,0.036019
888.9701,0.035796
890.8337,0.035830
892.6974,0.035832
894.5611,0.035806
896.4247,0.035600
898.2884,0.035140
900.1521,0.034911
902.0158,0.034819
903.8794,0.034639
905.7431,0.034577
907.6068,0.034679
909.4704,0.034825
911.3341,0.035048
913.1978,0.035324
915.0614,0.035520
916.9251,0.035798
918.7888,0.036179
920.6524,0.036447
922.5161,0.036647
924.3798,0.036838
926.2435,0.036904
928.1071,0.036900
929.9708,0.036885
931.8345,0.036835
933.6981,0.036894
935.5618,0.037053
937.4255,0.037096
939.2891,0.037198
941.1528,0.037500
943.0165,0.037735
944.8801,0.037972
946.7438,0.038254
948.6075,0.038349
950.4711,0.038377
952.3348,0.038381
954.1985,0.038489
956.0622,0.038829
957.9258,0.039457
959.7895,0.040289
961.6532,0.041255
963.5168,0.042403
965.3805,0.043487
967.2442,0.044320
969.1078,0.044895
970.9715,0.045220
972.8352,0.045454
974.6988,0.045646
976.5625,0.045922
978.4262,0.046399
980.2899,0.046985
982.1535,0.047499
984.0172,0.047977
985.8809,0.048461
987.7445,0.048929
989.6082,0.049351
991.4719,0.049696
993.3355,0.050100
995.1992,0.050638
997.0629,0.051103
998.9265,0.051581
1000.7902,0.052185
1002.6539,0.052820
1004.5175,0.053532
1006.3812,0.054388
1008.2449,0.055476
1010.1086,0.056845
1011.9722,0.058424
1013.8359,0.060230
1015.6996,0.062155
1017.5632,0.064039
1019.4269,0.065687
1021.2906,0.067038
1023.1542,0.068182
1025.0179,0.069169
1026.8816,0.070220
1028.7452,0.071428
1030.6089,0.072518
1032.4726,0.073471
1034.3362,0.074333
1036.1999,0.075061
1038.0636,0.075729
1039.9273,0.076282
1041.7909,0.076700
1043.6546,0.076985
1045.5183,0.077282
1047.3819,0.077588
1049.2456,0.077864
1051.1093,0.078253
1052.9729,0.078743
1054.8366,0.079240
1056.7003,0.079778
1058.5639,0.080382
1060.4276,0.080937
1062.2913,0.081396
1064.1550,0.081916
1066.0186,0.082532
1067.8823,0.083186
1069.7460,0.083781
1071.6096,0.084094
1073.4733,0.084227
1075.3370,0.084047
1077.2006,0.083566
1079.0643,0.082875
1080.9280,0.081629
1082.7916,0.079877
1084.6553,0.077993
1086.5190,0.076093
1088.3826,0.074228
1090.2463,0.072505
1092.1100,0.070937
1093.9737,0.069629
1095.8373,0.068497
1097.7010,0.067293
1099.5647,0.066213
1101.4283,0.065351
1103.2920,0.064573
1105.1557,0.063957
1107.0193,0.063449
1108.8830,0.062948
1110.7467,0.062556
1112.6103,0.062324
1114.4740,0.061972
1116.3377,0.061516
1118.2014,0.060983
1120.0650,0.060281
1121.9287,0.059522
1123.7924,0.058695
1125.6560,0.057880
1127.5197,0.057092
1129.3834,0.056187
1131.2470,0.055144
1133.1107,0.054031
1134.9744,0.053028
1136.8380,0.052153
1138.7017,0.051280
1140.5654,0.050583
1142.4290,0.050144
1144.2927,0.049882
1146.1564,0.049710
1148.0201,0.049765
1149.8837,0.049858
1151.7474,0.049909
1153.6111,0.049879
1155.4747,0.049760
1157.3384,0.049602
1159.2021,0.049367
1161.0657,0.049040
1162.9294,0.048660
1164.7931,0.048175
1166.6567,0.047494
1168.5204,0.046699
1170.3841,0.045757
1172.2477,0.044545
1174.1114,0.043093
1175.9751,0.041550
1177.8388,0.040090
1179.7024,0.038943
1181.5661,0.038117
1183.4298,0.037572
1185.2934,0.037378
1187.1571,0.037305
1189.0208,0.037335
1190.8844,0.037631
1192.7481,0.038015
1194.6118,0.038376
1196.4754,0.038839
1198.3391,0.039517
1200.2028,0.040340
1202.0665,0.041159
1203.9301,0.041885
1205.7938,0.042618
1207.6575,0.043376
1209.5211,0.044107
1211.3848,0.044887
1213.2485,0.045572
1215.1121,0.046258
1216.9758,0.047072
1218.8395,0.047957
1220.7031,0.048941
1222.5668,0.049917
1224.4305,0.050788
1226.2941,0.051596
1228.1578,0.052423
1230.0215,0.053165
1231.8852,0.053750
1233.7488,0.054178
1235.6125,0.054480
1237.4762,0.054689
1239.3398,0.054753
1241.2035,0.054758
1243.0672,0.054637
1244.9308,0.054226
1246.7945,0.053690
1248.6582,0.053193
1250.5218,0.052759
1252.3855,0.052345
1254.2492,0.051756
1256.1129,0.051156
1257.9765,0.050560
1259.8402,0.050084
1261.7039,0.049775
1263.5675,0.049456
1265.4312,0.049107
1267.2949,0.048810
1269.1585,0.048590
1271.0222,0.048482
1272.8859,0.048347
1274.7495,0.048190
1276.6132,0.048085
1278.4769,0.048000
1280.3405,0.048011
1282.2042,0.048008
1284.0679,0.047860
1285.9316,0.047816
1287.7952,0.047957
1289.6589,0.048143
1291.5226,0.048343
1293.3862,0.048414
1295.2499,0.048562
1297.1136,0.048777
1298.9772,0.048891
1300.8409,0.049028
1302.7046,0.049188
1304.5682,0.049296
1306.4319,0.049377
1308.2956,0.049520
1310.1592,0.049735
1312.0229,0.049908
1313.8866,0.049850
1315.7503,0.049638
1317.6139,0.049468
1319.4776,0.049180
1321.3413,0.048747
1323.2049,0.048213
1325.0686,0.047664
1326.9323,0.047296
1328.7959,0.047128
1330.6596,0.047048
1332.5233,0.046940
1334.3869,0.046880
1336.2506,0.047099
1338.1143,0.047653
1339.9780,0.048012
1341.8416,0.047846
1343.7053,0.047720
1345.5690,0.047856
1347.4326,0.047845
1349.2963,0.047753
1351.1600,0.047651
1353.0236,0.047510
1354.8873,0.047618
1356.7510,0.047691
1358.6146,0.047832
1360.4783,0.048673
1362.3420,0.050117
1364.2056,0.051007
1366.0693,0.051702
1367.9330,0.052871
1369.7967,0.053752
1371.6603,0.054615
1373.5240,0.056151
1375.3877,0.057483
1377.2513,0.058126
1379.1150,0.058869
1380.9787,0.059490
1382.8423,0.059997
1384.7060,0.060837
1386.5697,0.062136
1388.4333,0.062577
1390.2970,0.062229
1392.1607,0.062556
1394.0244,0.063408
1395.8880,0.063920
1397.7517,0.064183
1399.6154,0.064270
1401.4790,0.063605
1403.3427,0.063094
1405.2064,0.062650
1407.0700,0.061656
1408.9337,0.060498
1410.7974,0.059541
1412.6610,0.058369
1414.5247,0.057038
1416.3884,0.056521
1418.2520,0.056770
1420.1157,0.055790
1421.9794,0.054336
1423.8431,0.053629
1425.7067,0.052894
1427.5704,0.052536
1429.4341,0.052769
1431.2977,0.052984
1433.1614,0.053207
1435.0251,0.054831
1436.8887,0.056910
1438.7524,0.056709
1440.6161,0.056401
1442.4797,0.056785
1444.3434,0.057116
1446.2071,0.057631
1448.0707,0.058141
1449.9344,0.057744
1451.7981,0.057004
1453.6618,0.056712
1455.5254,0.057659
1457.3891,0.058532
1459.2528,0.055985
1461.1164,0.053883
1462.9801,0.053357
1464.8438,0.053395
1466.7074,0.052075
1468.5711,0.050388
1470.4348,0.049495
1472.2984,0.049157
1474.1621,0.047909
1476.0258,0.046715
1477.8895,0.045675
1479.7531,0.045328
1481.6168,0.045654
1483.4805,0.046056
1485.3441,0.047208
1487.2078,0.049498
1489.0715,0.052759
1490.9351,0.055069
1492.7988,0.055808
1494.6625,0.058044
1496.5261,0.062501
1498.3898,0.065769
1500.2535,0.067124
1502.1171,0.068014
1503.9808,0.070612
1505.8445,0.077976
1507.7082,0.084962
1509.5718,0.085129
1511.4355,0.086467
1513.2992,0.088526
1515.1628,0.090862
1517.0265,0.092999
1518.8902,0.094216
1520.7538,0.096631
1522.6175,0.098306
1524.4812,0.098961
1526.3448,0.100858
1528.2085,0.101560
1530.0722,0.102030
1531.9359,0.103787
1533.7995,0.105199
1535.6632,0.104122
1537.5269,0.104689
1539.3905,0.107729
1541.2542,0.108439
1543.1179,0.106690
1544.9815,0.104924
1546.8452,0.102606
1548.7089,0.100860
1550.5725,0.098363
1552.4362,0.095481
1554.2999,0.092250
1556.1635,0.090117
1558.0272,0.090657
1559.8909,0.087531
1561.7546,0.082725
1563.6182,0.080191
1565.4819,0.078075
1567.3456,0.076631
1569.2092,0.075371
1571.0729,0.072712
1572.9366,0.070814
1574.8002,0.070645
1576.6639,0.069963
1578.5276,0.067788
1580.3912,0.066406
1582.2549,0.065629
1584.1186,0.065089
1585.9822,0.064721
1587.8459,0.064611
1589.7096,0.064725
1591.5733,0.065032
1593.4369,0.065767
1595.3006,0.066545
1597.1643,0.067238
1599.0279,0.068297
1600.8916,0.069899
1602.7553,0.071814
1604.6189,0.073733
1606.4826,0.076114
1608.3463,0.079206
1610.2099,0.082154
1612.0736,0.084561
1613.9373,0.087713
1615.8010,0.092594
1617.6646,0.096902
1619.5283,0.098833
1621.3920,0.101954
1623.2556,0.106290
1625.1193,0.109229
1626.9830,0.111799
1628.8466,0.113994
1630.7103,0.114721
1632.5740,0.115904
1634.4376,0.118605
1636.3013,0.119727
1638.1650,0.118187
1640.0286,0.116856
1641.8923,0.115805
1643.7560,0.115073
1645.6197,0.114579
1647.4833,0.111548
1649.3470,0.108449
1651.2107,0.107923
1653.0743,0.105471
1654.9380,0.098695
1656.8017,0.094706
1658.6653,0.091205
1660.5290,0.087889
1662.3927,0.084142
1664.2563,0.079949
1666.1200,0.076750
1667.9837,0.074207
1669.8474,0.070647
1671.7110,0.066869
1673.5747,0.064081
1675.4384,0.060992
1677.3020,0.057411
1679.1657,0.054492
1681.0294,0.051762
1682.8930,0.049375
1684.7567,0.045061
1686.6204,0.041546
1688.4840,0.038729
1690.3477,0.035399
1692.2114,0.032073
1694.0750,0.029083
1695.9387,0.025298
1697.8024,0.022350
1699.6661,0.019553
1701.5297,0.016441
1703.3934,0.014809
1705.2571,0.013183
1707.1207,0.011606
1708.9844,0.010477
1710.8481,0.009434
1712.7117,0.008705
1714.5754,0.008066
1716.4391,0.007550
1718.3027,0.006883
1720.1664,0.006328
1722.0301,0.005811
1723.8937,0.005461
1725.7574,0.005165
1727.6211,0.005032
1729.4848,0.004917
1731.3484,0.005030
1733.2121,0.004974
1735.0758,0.005071
1736.9394,0.005133
1738.8031,0.004860
1740.6668,0.004711
1742.5304,0.004956
1744.3941,0.004802
1746.2578,0.004434
1748.1214,0.004102
1749.9851,0.003262
1751.8488,0.002245
1753.7125,0.001798
1755.5761,0.001185
1757.4398,0.000698
1759.3035,0.000427
1761.1671,-0.000001
1763.0308,-0.000465
1764.8945,-0.000456
1766.7581,-0.000385
1768.6218,-0.000338
1770.4855,-0.000625
1772.3491,-0.000826
1774.2128,-0.000726
1776.0765,-0.000875
1777.9401,-0.001023
1779.8038,-0.001161
1781.6675,-0.001080
1783.5312,-0.000965
1785.3948,-0.001179
1787.2585,-0.001272
1789.1222,-0.001172
1790.9858,-0.001087
1792.8495,-0.001004
1794.7132,-0.001099
1796.5768,-0.001359
1798.4405,-0.001433
1800.3042,-0.001396
1802.1678,-0.001305
1804.0315,-0.001454
1805.8952,-0.001497
1807.7589,-0.001594
1809.6225,-0.001610
1811.4862,-0.001702
1813.3499,-0.001979
1815.2135,-0.001921
1817.0772,-0.001749
1818.9409,-0.001708
1820.8045,-0.001714
1822.6682,-0.001464
1824.5319,-0.001510
1826.3955,-0.001619
1828.2592,-0.001756
1830.1229,-0.001805
1831.9865,-0.001620
1833.8502,-0.001643
1835.7139,-0.001860
1837.5776,-0.001937
1839.4412,-0.001799
1841.3049,-0.001615
1843.1686,-0.001373
1845.0322,-0.001428
1846.8959,-0.001551
1848.7596,-0.001524
1850.6232,-0.001470
1852.4869,-0.001473
1854.3506,-0.001338
1856.2142,-0.001344
1858.0779,-0.001575
1859.9416,-0.001658
1861.8052,-0.001665
1863.6689,-0.001922
1865.5326,-0.001790
1867.3963,-0.001777
1869.2599,-0.001843
1871.1236,-0.001653
1872.9873,-0.001552
1874.8509,-0.001708
1876.7146,-0.001487
1878.5783,-0.001177
1880.4419,-0.001279
1882.3056,-0.001003
1884.1693,-0.000720
1886.0329,-0.001167
1887.8966,-0.001555
1889.7603,-0.001249
1891.6240,-0.001185
1893.4876,-0.001558
1895.3513,-0.001428
1897.2150,-0.000910
1899.0786,-0.000856
1900.9423,-0.001336
1902.8060,-0.001362
1904.6696,-0.000834
1906.5333,-0.000989
1908.3970,-0.000932
1910.2606,-0.000764
1912.1243,-0.001248
1913.9880,-0.001200
1915.8516,-0.000727
1917.7153,-0.000654
1919.5790,-0.000910
1921.4427,-0.001255
1923.3063,-0.001457
1925.1700,-0.001346
1927.0337,-0.001473
1928.8973,-0.001650
1930.7610,-0.001626
1932.6247,-0.001560
1934.4883,-0.001426
1936.3520,-0.001012
1938.2157,-0.000471
1940.0793,-0.000460
1941.9430,-0.000932
1943.8067,-0.001017
1945.6704,-0.000782
1947.5340,-0.000498
1949.3977,-0.000626
1951.2614,-0.000395
1953.1250,0.000293
1954.9887,0.000047
1956.8524,-0.000426
1958.7160,-0.000317
1960.5797,0.000028
1962.4434,-0.000112
1964.3070,0.000572
1966.1707,0.001678
1968.0344,0.001801
1969.8980,0.001463
1971.7617,0.000751
1973.6254,0.000973
1975.4891,0.001947
1977.3527,0.002585
1979.2164,0.003139
1981.0801,0.002186
1982.9437,0.001616
1984.8074,0.001524
1986.6711,0.000828
1988.5347,0.001089
1990.3984,0.001382
1992.2621,0.001383
1994.1257,0.001559
1995.9894,0.001498
1997.8531,0.001368
1999.7167,0.001361
2001.5804,0.001176
2003.4441,0.001230
2005.3078,0.001063
2007.1714,0.001257
2009.0351,0.001590
2010.8988,0.001708
2012.7624,0.002584
2014.6261,0.002494
2016.4898,0.001571
2018.3534,0.001295
2020.2171,0.001821
2022.0808,0.002504
2023.9444,0.001305
2025.8081,0.000591
2027.6718,0.001460
2029.5355,0.002940
2031.3991,0.004055
2033.2628,0.004129
2035.1265,0.004087
2036.9901,0.004359
2038.8538,0.002814
2040.7175,0.001695
2042.5811,0.001584
2044.4448,0.001809
2046.3085,0.002705
2048.1721,0.003947
2050.0358,0.004647
2051.8995,0.004286
2053.7631,0.003518
2055.6268,0.002390
2057.4905,0.001400
2059.3542,0.001835
2061.2178,0.002443
2063.0815,0.002677
2064.9452,0.002643
2066.8088,0.002486
2068.6725,0.002649
2070.5362,0.002988
2072.3998,0.002659
2074.2635,0.002215
2076.1272,0.002918
2077.9908,0.002930
2079.8545,0.001934
2081.7182,0.002099
2083.5819,0.002377
2085.4455,0.002401
2087.3092,0.002239
2089.1729,0.001610
2091.0365,0.001155
2092.9002,0.001628
2094.7639,0.002141
2096.6275,0.002203
2098.4912,0.002505
2100.3549,0.002578
2102.2185,0.002473
2104.0822,0.002783
2105.9459,0.003049
2107.8095,0.003077
2109.6732,0.002741
2111.5369,0.002651
2113.4006,0.002975
2115.2642,0.002942
2117.1279,0.002251
2118.9916,0.001645
2120.8552,0.001606
2122.7189,0.001608
2124.5826,0.001685
2126.4462,0.002037
2128.3099,0.001944
2130.1736,0.001233
2132.0372,0.001353
2133.9009,0.001977
2135.7646,0.001813
2137.6282,0.001674
2139.4919,0.002159
2141.3556,0.002117
2143.2193,0.001536
2145.0829,0.002176
2146.9466,0.002815
2148.8103,0.002868
2150.6739,0.002503
2152.5376,0.001747
2154.4013,0.001620
2156.2649,0.002144
2158.1286,0.003171
2159.9923,0.005031
2161.8559,0.006669
2163.7196,0.006896
2165.5833,0.007145
2167.4470,0.007416
2169.3106,0.005769
2171.1743,0.004374
2173.0380,0.005056
2174.9016,0.005304
2176.7653,0.004636
2178.6290,0.003886
2180.4926,0.003373
2182.3563,0.004532
2184.2200,0.005860
2186.0836,0.005081
2187.9473,0.004713
2189.8110,0.004544
2191.6746,0.004250
2193.5383,0.005346
2195.4020,0.005639
2197.2657,0.004966
2199.1293,0.004573
2200.9930,0.003953
2202.8567,0.002935
2204.7203,0.003108
2206.5840,0.004410
2208.4477,0.005202
2210.3113,0.004897
2212.1750,0.004331
2214.0387,0.004035
2215.9023,0.003920
2217.7660,0.003920
2219.6297,0.004067
2221.4934,0.004635
2223.3570,0.004750
2225.2207,0.004177
2227.0844,0.003705
2228.9480,0.003701
2230.8117,0.003457
2232.6754,0.003066
2234.5390,0.003612
2236.4027,0.004199
2238.2664,0.004203
2240.1300,0.004092
2241.9937,0.003902
2243.8574,0.003691
2245.7210,0.003385
2247.5847,0.003709
2249.4484,0.004223
2251.3121,0.003935
2253.1757,0.003616
2255.0394,0.003513
2256.9031,0.003820
2258.7667,0.003979
2260.6304,0.003309
2262.4941,0.003094
2264.3577,0.003608
2266.2214,0.003564
2268.0851,0.003255
2269.9487,0.003472
2271.8124,0.003350
2273.6761,0.003166
2275.5397,0.003400
2277.4034,0.003452
2279.2671,0.003551
2281.1308,0.003909
2282.9944,0.003996
2284.8581,0.003787
2286.7218,0.003633
2288.5854,0.003687
2290.4491,0.003754
2292.3128,0.003530
2294.1764,0.003254
2296.0401,0.003040
2297.9038,0.002840
2299.7674,0.002666
2301.6311,0.002724
2303.4948,0.002802
2305.3585,0.002622
2307.2221,0.002682
2309.0858,0.002820
2310.9495,0.002606
2312.8131,0.002671
2314.6768,0.002964
2316.5405,0.003008
2318.4041,0.003022
2320.2678,0.003359
2322.1315,0.003541
2323.9951,0.003200
2325.8588,0.002776
2327.7225,0.002168
2329.5861,0.001837
2331.4498,0.002071
2333.3135,0.001973
2335.1772,0.001982
2337.0408,0.002440
2338.9045,0.002210
2340.7682,0.001845
2342.6318,0.002590
2344.4955,0.003004
2346.3592,0.002432
2348.2228,0.001821
2350.0865,0.001526
2351.9502,0.001659
2353.8138,0.001731
2355.6775,0.001817
2357.5412,0.002596
2359.4049,0.003279
2361.2685,0.003667
2363.1322,0.003545
2364.9959,0.002594
2366.8595,0.002258
2368.7232,0.002804
2370.5869,0.002853
2372.4505,0.002688
2374.3142,0.002618
2376.1779,0.002533
2378.0415,0.002515
2379.9052,0.002345
2381.7689,0.002095
2383.6325,0.001926
2385.4962,0.001870
2387.3599,0.002066
2389.2236,0.002266
2391.0872,0.002353
2392.9509,0.002218
2394.8146,0.002167
2396.6782,0.002164
2398.5419,0.001917
2400.4056,0.001979
2402.2692,0.002390
2404.1329,0.002531
2405.9966,0.002564
2407.8602,0.002691
2409.7239,0.002837
2411.5876,0.002687
2413.4512,0.002607
2415.3149,0.002921
2417.1786,0.003117
2419.0423,0.002956
2420.9059,0.002962
2422.7696,0.002985
2424.6333,0.003079
2426.4969,0.003171
2428.3606,0.003173
2430.2243,0.003383
2432.0879,0.003462
2433.9516,0.003283
2435.8153,0.003194
2437.6789,0.003318
2439.5426,0.003434
2441.4063,0.003406
2443.2700,0.003459
2445.1336,0.003477
2446.9973,0.003371
2448.8610,0.003566
2450.7246,0.003736
2452.5883,0.003654
2454.4520,0.003535
2456.3156,0.003658
2458.1793,0.003803
2460.0430,0.003662
2461.9066,0.003566
2463.7703,0.003778
2465.6340,0.003916
2467.4976,0.003837
2469.3613,0.003700
2471.2250,0.003719
2473.0887,0.003751
2474.9523,0.003752
2476.8160,0.003684
2478.6797,0.003672
2480.5433,0.003881
2482.4070,0.004113
2484.2707,0.004155
2486.1343,0.004152
2487.9980,0.004021
2489.8617,0.004396
2491.7253,0.004680
2493.5890,0.004395
2495.4527,0.004263
2497.3164,0.004421
2499.1800,0.004538
2501.0437,0.004515
2502.9074,0.004771
2504.7710,0.005094
2506.6347,0.004671
2508.4984,0.004405
2510.3620,0.004606
2512.2257,0.004494
2514.0894,0.004413
2515.9530,0.004532
2517.8167,0.004809
2519.6804,0.004958
2521.5440,0.004824
2523.4077,0.004656
2525.2714,0.004700
2527.1351,0.004676
2528.9987,0.004693
2530.8624,0.004669
2532.7261,0.004693
2534.5897,0.004721
2536.4534,0.004722
2538.3171,0.004650
2540.1807,0.004687
2542.0444,0.005041
2543.9081,0.005283
2545.7717,0.005246
2547.6354,0.005072
2549.4991,0.004785
2551.3627,0.004908
2553.2264,0.005117
2555.0901,0.004955
2556.9538,0.004886
2558.8174,0.005048
2560.6811,0.005350
2562.5448,0.005328
2564.4084,0.005328
2566.2721,0.005404
2568.1358,0.005509
2569.9994,0.005580
2571.8631,0.005686
2573.7268,0.005705
2575.5904,0.005682
2577.4541,0.005969
2579.3178,0.006186
2581.1815,0.006154
2583.0451,0.006150
2584.9088,0.006068
2586.7725,0.006053
2588.6361,0.005961
2590.4998,0.006161
2592.3635,0.006324
2594.2271,0.006382
2596.0908,0.006672
2597.9545,0.006722
2599.8181,0.006558
2601.6818,0.006585
2603.5455,0.006649
2605.4091,0.006795
2607.2728,0.006897
2609.1365,0.006990
2611.0002,0.006935
2612.8638,0.007022
2614.7275,0.007256
2616.5912,0.007436
2618.4548,0.007489
2620.3185,0.007424
2622.1822,0.007357
2624.0458,0.007373
2625.9095,0.007352
2627.7732,0.007366
2629.6368,0.007744
2631.5005,0.008085
2633.3642,0.008136
2635.2279,0.008057
2637.0915,0.008161
2638.9552,0.008136
2640.8189,0.007996
2642.6825,0.008020
2644.5462,0.008164
2646.4099,0.008353
2648.2735,0.008509
2650.1372,0.008405
2652.0009,0.008429
2653.8645,0.008526
2655.7282,0.008503
2657.5919,0.008422
2659.4555,0.008405
2661.3192,0.008406
2663.1829,0.008335
2665.0466,0.008281
2666.9102,0.008296
2668.7739,0.008372
2670.6376,0.008486
2672.5012,0.008556
2674.3649,0.008604
2676.2286,0.008644
2678.0922,0.008695
2679.9559,0.008990
2681.8196,0.009077
2683.6832,0.008881
2685.5469,0.008964
2687.4106,0.009173
2689.2742,0.009276
2691.1379,0.009423
2693.0016,0.009706
2694.8653,0.009793
2696.7289,0.009719
2698.5926,0.009745
2700.4563,0.009865
2702.3199,0.009926
2704.1836,0.010056
2706.0473,0.010194
2707.9109,0.010361
2709.7746,0.010454
2711.6383,0.010443
2713.5019,0.010535
2715.3656,0.010838
2717.2293,0.011067
2719.0930,0.010989
2720.9566,0.011072
2722.8203,0.011257
2724.6840,0.011393
2726.5476,0.011555
2728.4113,0.011714
2730.2750,0.011904
2732.1386,0.011885
2734.0023,0.011818
2735.8660,0.011960
2737.7296,0.012181
2739.5933,0.012370
2741.4570,0.012454
2743.3206,0.012663
2745.1843,0.012974
2747.0480,0.013053
2748.9117,0.012999
2750.7753,0.013042
2752.6390,0.013196
2754.5027,0.013401
2756.3663,0.013622
2758.2300,0.013649
2760.0937,0.013825
2761.9573,0.014119
2763.8210,0.014216
2765.6847,0.014413
2767.5483,0.014557
2769.4120,0.014562
2771.2757,0.014751
2773.1394,0.014948
2775.0030,0.015007
2776.8667,0.015117
2778.7304,0.015260
2780.5940,0.015429
2782.4577,0.015757
2784.3214,0.016066
2786.1850,0.016259
2788.0487,0.016504
2789.9124,0.016735
2791.7760,0.016709
2793.6397,0.016789
2795.5034,0.017198
2797.3670,0.017356
2799.2307,0.017222
2801.0944,0.017339
2802.9581,0.017675
2804.8217,0.017888
2806.6854,0.018304
2808.5491,0.018546
2810.4127,0.018501
2812.2764,0.018783
2814.1401,0.019182
2816.0037,0.019459
2817.8674,0.019494
2819.7311,0.019574
2821.5947,0.019889
2823.4584,0.020238
2825.3221,0.020339
2827.1857,0.020746
2829.0494,0.021348
2830.9131,0.021748
2832.7768,0.021976
2834.6404,0.022215
2836.5041,0.022693
2838.3678,0.023100
2840.2314,0.023453
2842.0951,0.024225
2843.9588,0.025220
2845.8224,0.026195
2847.6861,0.027279
2849.5498,0.028009
2851.4134,0.028508
2853.2771,0.028829
2855.1408,0.028866
2857.0045,0.028440
2858.8681,0.028230
2860.7318,0.028473
2862.5955,0.028557
2864.4591,0.028706
2866.3228,0.029138
2868.1865,0.029635
2870.0501,0.030311
2871.9138,0.030497
2873.7775,0.030390
2875.6411,0.030416
2877.5048,0.030269
2879.3685,0.030123
2881.2321,0.030201
2883.0958,0.030249
2884.9595,0.030172
2886.8232,0.030197
2888.6868,0.030589
2890.5505,0.030945
2892.4142,0.031263
2894.2778,0.031929
2896.1415,0.032461
2898.0052,0.032657
2899.8688,0.033080
2901.7325,0.033659
2903.5962,0.034263
2905.4598,0.034639
2907.3235,0.035298
2909.1872,0.036258
2911.0509,0.037070
2912.9145,0.037810
2914.7782,0.038825
2916.6419,0.039729
2918.5055,0.040383
2920.3692,0.041041
2922.2329,0.041509
2924.0965,0.041777
2925.9602,0.041634
2927.8239,0.041069
2929.6875,0.040781
2931.5512,0.040451
2933.4149,0.040136
2935.2785,0.039661
2937.1422,0.039157
2939.0059,0.038685
2940.8696,0.038429
2942.7332,0.038099
2944.5969,0.037689
2946.4606,0.037551
2948.3242,0.037530
2950.1879,0.037448
2952.0516,0.037731
2953.9152,0.037953
2955.7789,0.038157
2957.6426,0.038393
2959.5062,0.038204
2961.3699,0.037908
2963.2336,0.037644
2965.0972,0.037221
2966.9609,0.036614
2968.8246,0.035868
2970.6883,0.035623
2972.5519,0.035309
2974.4156,0.034641
2976.2793,0.034042
2978.1429,0.033636
2980.0066,0.033210
2981.8703,0.032713
2983.7339,0.032171
2985.5976,0.031732
2987.4613,0.031298
2989.3249,0.031136
2991.1886,0.031037
2993.0523,0.030880
2994.9160,0.030860
2996.7796,0.030791
2998.6433,0.030721
3000.5070,0.030975
3002.3706,0.031067
3004.2343,0.030840
3006.0980,0.030885
3007.9616,0.031310
3009.8253,0.031755
3011.6890,0.032014
3013.5526,0.032037
3015.4163,0.032319
3017.2800,0.032637
3019.1436,0.032940
3021.0073,0.033480
3022.8710,0.033854
3024.7347,0.034106
3026.5983,0.034121
3028.4620,0.034457
3030.3257,0.034938
3032.1893,0.035440
3034.0530,0.036045
3035.9167,0.036265
3037.7803,0.036529
3039.6440,0.036977
3041.5077,0.037265
3043.3713,0.037291
3045.2350,0.037621
3047.0987,0.038239
3048.9624,0.038653
3050.8260,0.038955
3052.6897,0.039487
3054.5534,0.039979
3056.4170,0.040133
3058.2807,0.039986
3060.1444,0.040385
3062.0080,0.041111
3063.8717,0.041634
3065.7354,0.041664
3067.5990,0.041699
3069.4627,0.041579
3071.3264,0.041658
3073.1900,0.041958
3075.0537,0.042393
3076.9174,0.042654
3078.7811,0.042655
3080.6447,0.042428
3082.5084,0.042622
3084.3721,0.042757
3086.2357,0.042672
3088.0994,0.042557
3089.9631,0.042728
3091.8267,0.042750
3093.6904,0.042818
3095.5541,0.042927
3097.4177,0.043200
3099.2814,0.043217
3101.1451,0.043063
3103.0087,0.043074
3104.8724,0.043344
3106.7361,0.043557
3108.5998,0.043491
3110.4634,0.043652
3112.3271,0.044093
3114.1908,0.044173
3116.0544,0.044868
3117.9181,0.044965
3119.7818,0.044816
3121.6454,0.044930
3123.5091,0.045355
3125.3728,0.045506
3127.2364,0.045654
3129.1001,0.046367
3130.9638,0.046631
3132.8275,0.046623
3134.6911,0.047110
3136.5548,0.047684
3138.4185,0.048123
3140.2821,0.048223
3142.1458,0.048485
3144.0095,0.049408
3145.8731,0.050342
3147.7368,0.050565
3149.6005,0.050873
3151.4641,0.051236
3153.3278,0.051727
3155.1915,0.051868
3157.0551,0.052331
3158.9188,0.052944
3160.7825,0.053364
3162.6462,0.053688
3164.5098,0.054264
3166.3735,0.054755
3168.2372,0.055208
3170.1008,0.055490
3171.9645,0.056095
3173.8282,0.056492
3175.6918,0.056899
3177.5555,0.057528
3179.4192,0.058096
3181.2828,0.058251
3183.1465,0.058765
3185.0102,0.059476
3186.8739,0.059991
3188.7375,0.060477
3190.6012,0.060683
3192.4649,0.060813
3194.3285,0.061563
3196.1922,0.061656
3198.0559,0.061669
3199.9195,0.062017
3201.7832,0.062461
3203.6469,0.062876
3205.5105,0.063435
3207.3742,0.063815
3209.2379,0.064091
3211.1015,0.064175
3212.9652,0.064752
3214.8289,0.065162
3216.6926,0.065467
3218.5562,0.065924
3220.4199,0.065773
3222.2836,0.065458
3224.1472,0.065948
3226.0109,0.066479
3227.8746,0.067101
3229.7382,0.067238
3231.6019,0.067696
3233.4656,0.068133
3235.3292,0.068350
3237.1929,0.068623
3239.0566,0.069231
3240.9202,0.069784
3242.7839,0.070183
3244.6476,0.070661
3246.5113,0.070949
3248.3749,0.070655
3250.2386,0.071210
3252.1023,0.072015
3253.9659,0.072595
3255.8296,0.073107
3257.6933,0.073599
3259.5569,0.073399
3261.4206,0.073545
3263.2843,0.074008
3265.1479,0.074141
3267.0116,0.074102
3268.8753,0.074476
3270.7390,0.074913
3272.6026,0.075056
3274.4663,0.075108
3276.3300,0.075378
3278.1936,0.074870
3280.0573,0.074691
3281.9210,0.074707
3283.7846,0.074728
3285.6483,0.074368
3287.5120,0.074148
3289.3756,0.073870
3291.2393,0.073336
3293.1030,0.072772
3294.9666,0.072756
3296.8303,0.072168
3298.6940,0.071573
3300.5577,0.071417
3302.4213,0.071680
3304.2850,0.071479
3306.1487,0.070723
3308.0123,0.069892
3309.8760,0.069547
3311.7397,0.069166
3313.6033,0.068880
3315.4670,0.068210
3317.3307,0.067683
3319.1943,0.067336
3321.0580,0.066996
3322.9217,0.066377
3324.7854,0.066110
3326.6490,0.065629
3328.5127,0.064908
3330.3764,0.064520
3332.2400,0.064490
3334.1037,0.064267
3335.9674,0.064310
3337.8310,0.064326
3339.6947,0.064026
3341.5584,0.063605
3343.4220,0.063327
3345.2857,0.062907
3347.1494,0.062456
3349.0130,0.061946
3350.8767,0.061904
3352.7404,0.061753
3354.6041,0.061348
3356.4677,0.061116
3358.3314,0.060800
3360.1951,0.060380
3362.0587,0.060540
3363.9224,0.060800
3365.7861,0.060950
3367.6497,0.060273
3369.5134,0.059480
3371.3771,0.059017
3373.2407,0.058881
3375.1044,0.059116
3376.9681,0.058834
3378.8317,0.058148
3380.6954,0.057911
3382.5591,0.057632
3384.4228,0.057674
3386.2864,0.057602
3388.1501,0.057235
3390.0138,0.056906
3391.8774,0.056858
3393.7411,0.056759
3395.6048,0.055891
3397.4684,0.055061
3399.3321,0.054749
3401.1958,0.054587
3403.0594,0.054905
3404.9231,0.055056
3406.7868,0.054538
3408.6505,0.054085
3410.5141,0.053857
3412.3778,0.052931
3414.2415,0.052304
3416.1051,0.052194
3417.9688,0.052105
3419.8325,0.051221
3421.6961,0.050890
3423.5598,0.051046
3425.4235,0.050760
3427.2871,0.050145
3429.1508,0.050076
3431.0145,0.050335
3432.8781,0.049877
3434.7418,0.049052
3436.6055,0.048896
3438.4692,0.048881
3440.3328,0.048668
3442.1965,0.047957
3444.0602,0.047259
3445.9238,0.046759
3447.7875,0.046517
3449.6512,0.046262
3451.5148,0.045558
3453.3785,0.044729
3455.2422,0.044211
3457.1058,0.044026
3458.9695,0.044319
3460.8332,0.044031
3462.6969,0.042940
3464.5605,0.042118
3466.4242,0.042365
3468.2879,0.042660
3470.1515,0.042052
3472.0152,0.041292
3473.8789,0.041357
3475.7425,0.041270
3477.6062,0.040543
3479.4699,0.039688
3481.3335,0.038908
3483.1972,0.038045
3485.0609,0.037923
3486.9245,0.038095
3488.7882,0.037462
3490.6519,0.037015
3492.5156,0.036986
3494.3792,0.036174
3496.2429,0.035548
3498.1066,0.035043
3499.9702,0.034546
3501.8339,0.033879
3503.6976,0.033419
3505.5612,0.033340
3507.4249,0.032846
3509.2886,0.032006
3511.1522,0.031312
3513.0159,0.030800
3514.8796,0.030390
3516.7432,0.029857
3518.6069,0.029411
3520.4706,0.028855
3522.3343,0.028609
3524.1979,0.028524
3526.0616,0.027817
3527.9253,0.027375
3529.7889,0.027238
3531.6526,0.025973
3533.5163,0.025073
3535.3799,0.025266
3537.2436,0.025041
3539.1073,0.024136
3540.9709,0.023495
3542.8346,0.022762
3544.6983,0.022333
3546.5620,0.022373
3548.4256,0.021812
3550.2893,0.021072
3552.1530,0.020564
3554.0166,0.019966
3555.8803,0.019225
3557.7440,0.018633
3559.6076,0.018245
3561.4713,0.017764
3563.3350,0.017353
3565.1986,0.016705
3567.0623,0.015875
3568.9260,0.015691
3570.7896,0.015554
3572.6533,0.014550
3574.5170,0.012962
3576.3807,0.012406
3578.2443,0.012977
3580.1080,0.012808
3581.9717,0.012152
3583.8353,0.011916
3585.6990,0.011907
3587.5627,0.011499
3589.4263,0.010248
3591.2900,0.009327
3593.1537,0.009360
3595.0173,0.008914
3596.8810,0.008100
3598.7447,0.008004
3600.6084,0.007349
3602.4720,0.006185
3604.3357,0.006096
3606.1994,0.006380
3608.0630,0.006130
3609.9267,0.005932
3611.7904,0.005205
3613.6540,0.004149
3615.5177,0.003727
3617.3814,0.003733
3619.2450,0.003544
3621.1087,0.002850
3622.9724,0.001974
3624.8360,0.001467
3626.6997,0.001255
3628.5634,0.001040
3630.4271,0.000890
3632.2907,0.000645
3634.1544,0.000129
3636.0181,-0.000180
3637.8817,-0.000381
3639.7454,-0.000991
3641.6091,-0.001272
3643.4727,-0.001132
3645.3364,-0.002138
3647.2001,-0.003287
3649.0637,-0.003334
3650.9274,-0.003323
3652.7911,-0.003376
3654.6547,-0.003488
3656.5184,-0.003977
3658.3821,-0.004138
3660.2458,-0.004034
3662.1094,-0.004484
3663.9731,-0.004985
3665.8368,-0.005232
3667.7004,-0.005738
3669.5641,-0.006102
3671.4278,-0.005980
3673.2914,-0.006081
3675.1551,-0.006469
3677.0188,-0.006407
3678.8824,-0.006422
3680.7461,-0.006789
3682.6098,-0.006877
3684.4735,-0.006726
3686.3371,-0.006858
3688.2008,-0.007502
3690.0645,-0.007947
3691.9281,-0.007785
3693.7918,-0.007706
3695.6555,-0.007754
3697.5191,-0.007634
3699.3828,-0.007537
3701.2465,-0.007728
3703.1101,-0.007543
3704.9738,-0.006919
3706.8375,-0.006851
3708.7011,-0.007133
3710.5648,-0.007424
3712.4285,-0.007792
3714.2922,-0.007753
3716.1558,-0.007778
3718.0195,-0.007927
3719.8832,-0.007941
3721.7468,-0.007836
3723.6105,-0.007587
3725.4742,-0.007725
3727.3378,-0.008109
3729.2015,-0.007863
3731.0652,-0.007763
3732.9288,-0.008270
3734.7925,-0.008584
3736.6562,-0.008317
3738.5199,-0.007548
3740.3835,-0.007431
3742.2472,-0.007990
3744.1109,-0.008521
3745.9745,-0.008368
3747.8382,-0.008013
3749.7019,-0.008042
3751.5655,-0.008112
3753.4292,-0.008293
3755.2929,-0.007921
3757.1565,-0.007465
3759.0202,-0.007478
3760.8839,-0.007703
3762.7475,-0.007697
3764.6112,-0.007689
3766.4749,-0.007752
3768.3386,-0.007653
3770.2022,-0.007928
3772.0659,-0.008003
3773.9296,-0.007686
3775.7932,-0.007347
3777.6569,-0.007292
3779.5206,-0.007603
3781.3842,-0.007627
3783.2479,-0.007754
3785.1116,-0.008035
3786.9752,-0.007929
3788.8389,-0.007788
3790.7026,-0.007723
3792.5662,-0.007603
3794.4299,-0.007744
3796.2936,-0.007862
3798.1573,-0.007450
3800.0209,-0.007233
3801.8846,-0.007694
3803.7483,-0.007905
3805.6119,-0.007819
3807.4756,-0.008173
3809.3393,-0.008191
3811.2029,-0.007839
3813.0666,-0.007649
3814.9303,-0.007828
3816.7939,-0.008063
3818.6576,-0.007978
3820.5213,-0.008290
3822.3850,-0.008321
3824.2486,-0.007738
3826.1123,-0.007811
3827.9760,-0.007760
3829.8396,-0.007651
3831.7033,-0.008138
3833.5670,-0.007899
3835.4306,-0.007164
3837.2943,-0.007430
3839.1580,-0.008031
3841.0216,-0.008113
3842.8853,-0.008095
3844.7490,-0.008103
3846.6126,-0.007823
3848.4763,-0.007692
3850.3400,-0.007952
3852.2037,-0.008469
3854.0673,-0.008366
3855.9310,-0.007422
3857.7947,-0.007286
3859.6583,-0.007689
3861.5220,-0.007922
3863.3857,-0.008112
3865.2493,-0.008166
3867.1130,-0.007590
3868.9767,-0.007398
3870.8403,-0.008030
3872.7040,-0.007741
3874.5677,-0.007415
3876.4314,-0.007259
3878.2950,-0.007345
3880.1587,-0.007751
3882.0224,-0.007488
3883.8860,-0.007262
3885.7497,-0.007761
3887.6134,-0.008048
3889.4770,-0.007854
3891.3407,-0.007907
3893.2044,-0.007801
3895.0680,-0.007341
3896.9317,-0.007461
3898.7954,-0.007791
3900.6590,-0.007623
3902.5227,-0.007595
3904.3864,-0.007720
3906.2501,-0.007468
3908.1137,-0.007649
3909.9774,-0.007654
3911.8411,-0.007439
3913.7047,-0.007339
3915.5684,-0.007458
3917.4321,-0.007858
3919.2957,-0.007814
3921.1594,-0.007355
3923.0231,-0.007304
3924.8867,-0.007574
3926.7504,-0.007630
3928.6141,-0.007438
3930.4777,-0.007303
3932.3414,-0.007372
3934.2051,-0.007481
3936.0688,-0.007376
3937.9324,-0.007223
3939.7961,-0.007080
3941.6598,-0.007416
3943.5234,-0.007525
3945.3871,-0.007261
3947.2508,-0.007322
3949.1144,-0.007324
3950.9781,-0.007232
3952.8418,-0.007126
3954.7054,-0.006978
3956.5691,-0.007220
3958.4328,-0.007588
3960.2965,-0.007493
3962.1601,-0.007335
3964.0238,-0.007259
3965.8875,-0.006848
3967.7511,-0.006954
3969.6148,-0.007116
3971.4785,-0.007091
3973.3421,-0.007368
3975.2058,-0.007500
3977.0695,-0.007337
3978.9331,-0.007234
3980.7968,-0.006990
3982.6605,-0.006958
3984.5241,-0.007261
3986.3878,-0.007329
3988.2515,-0.007162
3990.1152,-0.007171
3991.9788,-0.007378
3993.8425,-0.007489
3995.7062,-0.007197
3997.5698,-0.006934
3999.4335,-0.006903
