Wavenumber,Intensity
650.4205,0.051509
652.2841,0.052245
654.1478,0.054037
656.0115,0.055057
657.8751,0.054784
659.7388,0.054128
661.6025,0.054697
663.4661,0.054496
665.3298,0.053767
667.1935,0.051933
669.0571,0.050640
670.9208,0.051558
672.7845,0.051324
674.6481,0.051269
676.5118,0.051372
678.3755,0.050267
680.2392,0.049438
682.1028,0.049792
683.9665,0.049902
685.8302,0.049929
687.6938,0.049899
689.5575,0.048922
691.4212,0.047573
693.2848,0.046765
695.1485,0.046928
697.0122,0.047236
698.8758,0.047493
700.7395,0.046999
702.6032,0.046058
704.4669,0.045624
706.3305,0.045576
708.1942,0.045516
710.0579,0.044585
711.9215,0.043733
713.7852,0.043613
715.6489,0.043182
717.5125,0.042650
719.3762,0.041801
721.2399,0.040606
723.1035,0.039504
724.9672,0.038936
726.8309,0.039199
728.6945,0.039313
730.5582,0.038611
732.4219,0.038184
734.2856,0.038305
736.1492,0.038336
738.0129,0.038017
739.8766,0.037655
741.7402,0.037620
743.6039,0.037429
745.4676,0.037302
747.3312,0.037234
749.1949,0.036928
751.0586,0.036589
752.9222,0.036221
754.7859,0.036298
756.6496,0.036811
758.5132,0.037055
760.3769,0.037090
762.2406,0.037264
764.1043,0.037544
765.9679,0.037865
767.8316,0.038048
769.6953,0.037963
771.5589,0.037671
773.4226,0.037435
775.2863,0.037515
777.1499,0.037506
779.0136,0.037446
780.8773,0.037455
782.7409,0.037386
784.6046,0.037776
786.4683,0.037948
788.3320,0.037665
790.1956,0.037768
792.0593,0.037830
793.9230,0.037758
795.7866,0.037738
797.6503,0.037583
799.5140,0.037189
801.3776,0.036886
803.2413,0.036742
805.1050,0.036341
806.9686,0.035692
808.8323,0.034857
810.6960,0.034069
812.5596,0.033877
814.4233,0.033872
816.2870,0.033624
818.1507,0.033200
820.0143,0.032175
821.8780,0.030929
823.7417,0.029879
825.6053,0.028529
827.4690,0.027346
829.3327,0.026688
831.1963,0.026170
833.0600,0.025699
834.9237,0.025348
836.7873,0.024995
838.6510,0.024541
840.5147,0.024082
842.3784,0.023922
844.2420,0.024024
846.1057,0.024130
847.9694,0.024223
849.8330,0.024444
851.6967,0.024670
853.5604,0.024842
855.4240,0.025079
857.2877,0.025130
859.1514,0.024906
861.0150,0.025020
862.8787,0.025276
864.7424,0.025409
866.6060,0.025631
868.4697,0.025763
870.3334,0.025910
872.1971,0.026223
874.0607,0.026418
875.9244,0.026319
877.7881,0.026187
879.6517,0.025934
881.5154,0.025600
883.3791,0.025475
885.2427,0.025428
887.1064,0.025375
888.9701,0.025612
890.8337,0.025824
892.6974,0.025748
894.5611,0.025633
896.4247,0.025553
898.2884,0.025360
900.1521,0.025012
902.0158,0.024758
903.8794,0.024389
905.7431,0.024096
907.6068,0.024038
909.4704,0.024098
911.3341,0.024348
913.1978,0.024679
915.0614,0.024862
916.9251,0.024792
918.7888,0.024711
920.6524,0.024707
922.5161,0.024799
924.3798,0.025018
926.2435,0.024928
928.1071,0.024683
929.9708,0.024662
931.8345,0.024777
933.6981,0.024897
935.5618,0.025175
937.4255,0.025633
939.2891,0.026177
941.1528,0.026948
943.0165,0.027769
944.8801,0.028233
946.7438,0.028533
948.6075,0.028737
950.4711,0.028708
952.3348,0.028692
954.1985,0.028895
956.0622,0.029407
957.9258,0.030371
959.7895,0.031655
961.6532,0.033113
963.5168,0.034620
965.3805,0.035838
967.2442,0.036413
969.1078,0.036618
970.9715,0.036596
972.8352,0.036391
974.6988,0.036333
976.5625,0.036753
978.4262,0.037461
980.2899,0.038324
982.1535,0.039296
984.0172,0.040319
985.8809,0.041465
987.7445,0.042712
989.6082,0.043921
991.4719,0.045241
993.3355,0.046791
995.1992,0.048335
997.0629,0.049790
998.9265,0.051134
1000.7902,0.052481
1002.6539,0.054022
1004.5175,0.055684
1006.3812,0.057530
1008.2449,0.059737
1010.1086,0.062247
1011.9722,0.064699
1013.8359,0.066841
1015.6996,0.068777
1017.5632,0.070485
1019.4269,0.071559
1021.2906,0.072116
1023.1542,0.072521
1025.0179,0.072856
1026.8816,0.073132
1028.7452,0.073330
1030.6089,0.073316
1032.4726,0.073091
1034.3362,0.072765
1036.1999,0.072139
1038.0636,0.071182
1039.9273,0.070227
1041.7909,0.069319
1043.6546,0.068331
1045.5183,0.067363
1047.3819,0.066560
1049.2456,0.065919
1051.1093,0.065533
1052.9729,0.065354
1054.8366,0.065222
1056.7003,0.065237
1058.5639,0.065306
1060.4276,0.065335
1062.2913,0.065626
1064.1550,0.065955
1066.0186,0.066102
1067.8823,0.066144
1069.7460,0.066037
1071.6096,0.065618
1073.4733,0.064803
1075.3370,0.063717
1077.2006,0.062467
1079.0643,0.060864
1080.9280,0.059045
1082.7916,0.057277
1084.6553,0.055520
1086.5190,0.053916
1088.3826,0.052415
1090.2463,0.051016
1092.1100,0.049773
1093.9737,0.048684
1095.8373,0.047737
1097.7010,0.046784
1099.5647,0.045817
1101.4283,0.045066
1103.2920,0.044558
1105.1557,0.044169
1107.0193,0.043898
1108.8830,0.043745
1110.7467,0.043675
1112.6103,0.043595
1114.4740,0.043365
1116.3377,0.042994
1118.2014,0.042510
1120.0650,0.041890
1121.9287,0.041298
1123.7924,0.040649
1125.6560,0.039880
1127.5197,0.039127
1129.3834,0.038403
1131.2470,0.037589
1133.1107,0.036648
1134.9744,0.035642
1136.8380,0.034784
1138.7017,0.033957
1140.5654,0.033117
1142.4290,0.032522
1144.2927,0.032118
1146.1564,0.031881
1148.0201,0.031715
1149.8837,0.031639
1151.7474,0.031632
1153.6111,0.031511
1155.4747,0.031261
1157.3384,0.030932
1159.2021,0.030539
1161.0657,0.030010
1162.9294,0.029364
1164.7931,0.028702
1166.6567,0.027875
1168.5204,0.026761
1170.3841,0.025416
1172.2477,0.023861
1174.1114,0.022301
1175.9751,0.020917
1177.8388,0.019691
1179.7024,0.018709
1181.5661,0.018005
1183.4298,0.017573
1185.2934,0.017359
1187.1571,0.017322
1189.0208,0.017446
1190.8844,0.017677
1192.7481,0.018023
1194.6118,0.018446
1196.4754,0.018943
1198.3391,0.019516
1200.2028,0.020114
1202.0665,0.020684
1203.9301,0.021152
1205.7938,0.021612
1207.6575,0.022027
1209.5211,0.022331
1211.3848,0.022714
1213.2485,0.023188
1215.1121,0.023553
1216.9758,0.023939
1218.8395,0.024412
1220.7031,0.024785
1222.5668,0.025195
1224.4305,0.025687
1226.2941,0.026130
1228.1578,0.026496
1230.0215,0.026832
1231.8852,0.027106
1233.7488,0.027277
1235.6125,0.027393
1237.4762,0.027517
1239.3398,0.027494
1241.2035,0.027494
1243.0672,0.027548
1244.9308,0.027468
1246.7945,0.027433
1248.6582,0.027544
1250.5218,0.027766
1252.3855,0.028137
1254.2492,0.028624
1256.1129,0.029157
1257.9765,0.029535
1259.8402,0.029390
1261.7039,0.028823
1263.5675,0.027928
1265.4312,0.026748
1267.2949,0.025624
1269.1585,0.024771
1271.0222,0.024235
1272.8859,0.023973
1274.7495,0.023738
1276.6132,0.023522
1278.4769,0.023463
1280.3405,0.023330
1282.2042,0.023185
1284.0679,0.023237
1285.9316,0.023327
1287.7952,0.023407
1289.6589,0.023578
1291.5226,0.023764
1293.3862,0.024023
1295.2499,0.024390
1297.1136,0.024682
1298.9772,0.024906
1300.8409,0.025276
1302.7046,0.025711
1304.5682,0.026012
1306.4319,0.026313
1308.2956,0.026524
1310.1592,0.026658
1312.0229,0.026914
1313.8866,0.027031
1315.7503,0.027001
1317.6139,0.026984
1319.4776,0.026752
1321.3413,0.026419
1323.2049,0.026147
1325.0686,0.025921
1326.9323,0.025582
1328.7959,0.025264
1330.6596,0.025108
1332.5233,0.025041
1334.3869,0.025006
1336.2506,0.025075
1338.1143,0.025288
1339.9780,0.025604
1341.8416,0.025664
1343.7053,0.025634
1345.5690,0.025663
1347.4326,0.025543
1349.2963,0.025556
1351.1600,0.025650
1353.0236,0.025810
1354.8873,0.025987
1356.7510,0.026100
1358.6146,0.026261
1360.4783,0.026808
1362.3420,0.027635
1364.2056,0.028380
1366.0693,0.028837
1367.9330,0.029425
1369.7967,0.030080
1371.6603,0.030631
1373.5240,0.031333
1375.3877,0.031751
1377.2513,0.031446
1379.1150,0.031148
1380.9787,0.030930
1382.8423,0.030572
1384.7060,0.030084
1386.5697,0.030023
1388.4333,0.029935
1390.2970,0.029414
1392.1607,0.029335
1394.0244,0.029698
1395.8880,0.029928
1397.7517,0.029981
1399.6154,0.030030
1401.4790,0.029750
1403.3427,0.029569
1405.2064,0.029519
1407.0700,0.029222
1408.9337,0.029080
1410.7974,0.028879
1412.6610,0.028437
1414.5247,0.027934
1416.3884,0.027742
1418.2520,0.028047
1420.1157,0.028098
1421.9794,0.027421
1423.8431,0.027078
1425.7067,0.026943
1427.5704,0.026805
1429.4341,0.026915
1431.2977,0.026931
1433.1614,0.026826
1435.0251,0.027190
1436.8887,0.027982
1438.7524,0.027900
1440.6161,0.027618
1442.4797,0.027505
1444.3434,0.027394
1446.2071,0.027329
1448.0707,0.027191
1449.9344,0.026781
1451.7981,0.026118
1453.6618,0.025705
1455.5254,0.025720
1457.3891,0.026000
1459.2528,0.024961
1461.1164,0.023815
1462.9801,0.023115
1464.8438,0.022812
1466.7074,0.022071
1468.5711,0.021157
1470.4348,0.020534
1472.2984,0.020350
1474.1621,0.019874
1476.0258,0.019088
1477.8895,0.018482
1479.7531,0.018053
1481.6168,0.017772
1483.4805,0.017754
1485.3441,0.018020
1487.2078,0.018768
1489.0715,0.019787
1490.9351,0.020393
1492.7988,0.020589
1494.6625,0.021355
1496.5261,0.023194
1498.3898,0.024407
1500.2535,0.024823
1502.1171,0.025093
1503.9808,0.025880
1505.8445,0.028956
1507.7082,0.032509
1509.5718,0.032557
1511.4355,0.032964
1513.2992,0.033724
1515.1628,0.034423
1517.0265,0.035379
1518.8902,0.035876
1520.7538,0.036947
1522.6175,0.037944
1524.4812,0.037910
1526.3448,0.038585
1528.2085,0.038961
1530.0722,0.039022
1531.9359,0.039468
1533.7995,0.040446
1535.6632,0.039928
1537.5269,0.039578
1539.3905,0.041388
1541.2542,0.042941
1543.1179,0.042314
1544.9815,0.041613
1546.8452,0.040752
1548.7089,0.040108
1550.5725,0.039564
1552.4362,0.038497
1554.2999,0.037702
1556.1635,0.037398
1558.0272,0.038288
1559.8909,0.038426
1561.7546,0.036140
1563.6182,0.034717
1565.4819,0.033814
1567.3456,0.033081
1569.2092,0.032799
1571.0729,0.032198
1572.9366,0.031236
1574.8002,0.031117
1576.6639,0.031431
1578.5276,0.030672
1580.3912,0.030066
1582.2549,0.029989
1584.1186,0.029823
1585.9822,0.029827
1587.8459,0.030020
1589.7096,0.030436
1591.5733,0.030953
1593.4369,0.031417
1595.3006,0.031859
1597.1643,0.032364
1599.0279,0.032761
1600.8916,0.033502
1602.7553,0.034444
1604.6189,0.035183
1606.4826,0.035936
1608.3463,0.037012
1610.2099,0.038024
1612.0736,0.038802
1613.9373,0.039617
1615.8010,0.041630
1617.6646,0.043555
1619.5283,0.043638
1621.3920,0.044299
1623.2556,0.046128
1625.1193,0.046968
1626.9830,0.047435
1628.8466,0.048336
1630.7103,0.048510
1632.5740,0.048618
1634.4376,0.049813
1636.3013,0.050767
1638.1650,0.049592
1640.0286,0.048574
1641.8923,0.047823
1643.7560,0.046808
1645.6197,0.046525
1647.4833,0.046168
1649.3470,0.044731
1651.2107,0.043812
1653.0743,0.044413
1654.9380,0.042612
1656.8017,0.040451
1658.6653,0.038928
1660.5290,0.037495
1662.3927,0.036147
1664.2563,0.034709
1666.1200,0.032973
1667.9837,0.031542
1669.8474,0.030214
1671.7110,0.028384
1673.5747,0.026757
1675.4384,0.025329
1677.3020,0.023392
1679.1657,0.021679
1681.0294,0.019996
1682.8930,0.018451
1684.7567,0.017045
1686.6204,0.015491
1688.4840,0.013915
1690.3477,0.012278
1692.2114,0.010622
1694.0750,0.008983
1695.9387,0.007336
1697.8024,0.006088
1699.6661,0.004560
1701.5297,0.003279
1703.3934,0.002341
1705.2571,0.001557
1707.1207,0.000714
1708.9844,0.000016
1710.8481,-0.000414
1712.7117,-0.000677
1714.5754,-0.000845
1716.4391,-0.001009
1718.3027,-0.001395
1720.1664,-0.001366
1722.0301,-0.001450
1723.8937,-0.001659
1725.7574,-0.001736
1727.6211,-0.001749
1729.4848,-0.001849
1731.3484,-0.001734
1733.2121,-0.001823
1735.0758,-0.001410
1736.9394,-0.001131
1738.8031,-0.001276
1740.6668,-0.001215
1742.5304,-0.001070
1744.3941,-0.001214
1746.2578,-0.001474
1748.1214,-0.001645
1749.9851,-0.001926
1751.8488,-0.002429
1753.7125,-0.002829
1755.5761,-0.003455
1757.4398,-0.003891
1759.3035,-0.004125
1761.1671,-0.004435
1763.0308,-0.004628
1764.8945,-0.004722
1766.7581,-0.004807
1768.6218,-0.004732
1770.4855,-0.004631
1772.3491,-0.004750
1774.2128,-0.004826
1776.0765,-0.004889
1777.9401,-0.004898
1779.8038,-0.004860
1781.6675,-0.004767
1783.5312,-0.004832
1785.3948,-0.004899
1787.2585,-0.004871
1789.1222,-0.004916
1790.9858,-0.005026
1792.8495,-0.004908
1794.7132,-0.004722
1796.5768,-0.004772
1798.4405,-0.004797
1800.3042,-0.004899
1802.1678,-0.004875
1804.0315,-0.004833
1805.8952,-0.004819
1807.7589,-0.005030
1809.6225,-0.005146
1811.4862,-0.005031
1813.3499,-0.004905
1815.2135,-0.005001
1817.0772,-0.004941
1818.9409,-0.004562
1820.8045,-0.004584
1822.6682,-0.004887
1824.5319,-0.004901
1826.3955,-0.004548
1828.2592,-0.004402
1830.1229,-0.004326
1831.9865,-0.004616
1833.8502,-0.004747
1835.7139,-0.004608
1837.5776,-0.004763
1839.4412,-0.004833
1841.3049,-0.004597
1843.1686,-0.004617
1845.0322,-0.004649
1846.8959,-0.004665
1848.7596,-0.004538
1850.6232,-0.004436
1852.4869,-0.004604
1854.3506,-0.004573
1856.2142,-0.004621
1858.0779,-0.004638
1859.9416,-0.004404
1861.8052,-0.004231
1863.6689,-0.004359
1865.5326,-0.004469
1867.3963,-0.004634
1869.2599,-0.004296
1871.1236,-0.003912
1872.9873,-0.004076
1874.8509,-0.004091
1876.7146,-0.004100
1878.5783,-0.003897
1880.4419,-0.003862
1882.3056,-0.004070
1884.1693,-0.004008
1886.0329,-0.003748
1887.8966,-0.003860
1889.7603,-0.003814
1891.6240,-0.003531
1893.4876,-0.003888
1895.3513,-0.003904
1897.2150,-0.003619
1899.0786,-0.003721
1900.9423,-0.003543
1902.8060,-0.002907
1904.6696,-0.003012
1906.5333,-0.003728
1908.3970,-0.004135
1910.2606,-0.003735
1912.1243,-0.003501
1913.9880,-0.003486
1915.8516,-0.003664
1917.7153,-0.004031
1919.5790,-0.003942
1921.4427,-0.003636
1923.3063,-0.003449
1925.1700,-0.003442
1927.0337,-0.003493
1928.8973,-0.003386
1930.7610,-0.003375
1932.6247,-0.003469
1934.4883,-0.003646
1936.3520,-0.003035
1938.2157,-0.002112
1940.0793,-0.002427
1941.9430,-0.002243
1943.8067,-0.002192
1945.6704,-0.003180
1947.5340,-0.003295
1949.3977,-0.003093
1951.2614,-0.002811
1953.1250,-0.002565
1954.9887,-0.002437
1956.8524,-0.002180
1958.7160,-0.002052
1960.5797,-0.001573
1962.4434,-0.001356
1964.3070,-0.002195
1966.1707,-0.002265
1968.0344,-0.001850
1969.8980,-0.001480
1971.7617,-0.001069
1973.6254,-0.000320
1975.4891,-0.000016
1977.3527,0.000251
1979.2164,0.000097
1981.0801,0.000337
1982.9437,0.000406
1984.8074,-0.000585
1986.6711,-0.000755
1988.5347,-0.000290
1990.3984,-0.001108
1992.2621,-0.001890
1994.1257,-0.002369
1995.9894,-0.002069
1997.8531,-0.001174
1999.7167,-0.000766
2001.5804,-0.001054
2003.4441,-0.001312
2005.3078,-0.001764
2007.1714,-0.001488
2009.0351,-0.000434
2010.8988,0.000021
2012.7624,-0.000150
2014.6261,-0.000656
2016.4898,-0.000973
2018.3534,0.000228
2020.2171,0.000782
2022.0808,0.000890
2023.9444,0.000895
2025.8081,0.000091
2027.6718,-0.000070
2029.5355,0.000324
2031.3991,0.000427
2033.2628,0.000753
2035.1265,0.000610
2036.9901,0.000824
2038.8538,0.001253
2040.7175,0.000959
2042.5811,-0.000133
2044.4448,0.000139
2046.3085,0.000924
2048.1721,0.000665
2050.0358,0.000160
2051.8995,0.000157
2053.7631,-0.000178
2055.6268,-0.000776
2057.4905,-0.000761
2059.3542,-0.000518
2061.2178,-0.000577
2063.0815,-0.000138
2064.9452,0.000097
2066.8088,0.000124
2068.6725,0.000081
2070.5362,-0.000257
2072.3998,-0.000668
2074.2635,-0.000704
2076.1272,-0.000306
2077.9908,-0.000083
2079.8545,-0.000637
2081.7182,-0.001276
2083.5819,-0.001047
2085.4455,-0.000705
2087.3092,-0.000874
2089.1729,-0.001384
2091.0365,-0.001874
2092.9002,-0.001937
2094.7639,-0.001650
2096.6275,-0.000824
2098.4912,-0.000626
2100.3549,-0.001881
2102.2185,-0.002031
2104.0822,-0.000780
2105.9459,-0.000546
2107.8095,-0.000999
2109.6732,-0.000964
2111.5369,-0.000679
2113.4006,-0.000660
2115.2642,-0.001012
2117.1279,-0.001701
2118.9916,-0.001581
2120.8552,-0.001196
2122.7189,-0.001540
2124.5826,-0.001723
2126.4462,-0.002255
2128.3099,-0.002631
2130.1736,-0.002528
2132.0372,-0.002118
2133.9009,-0.002289
2135.7646,-0.002358
2137.6282,-0.001351
2139.4919,-0.001179
2141.3556,-0.001079
2143.2193,-0.000810
2145.0829,-0.001823
2146.9466,-0.002000
2148.8103,0.000082
2150.6739,0.000350
2152.5376,-0.000826
2154.4013,-0.001299
2156.2649,-0.001417
2158.1286,-0.000231
2159.9923,0.002236
2161.8559,0.003532
2163.7196,0.002702
2165.5833,0.002000
2167.4470,0.002595
2169.3106,0.003205
2171.1743,0.002261
2173.0380,0.000761
2174.9016,0.000373
2176.7653,-0.000005
2178.6290,0.000597
2180.4926,0.001938
2182.3563,0.002404
2184.2200,0.002539
2186.0836,0.002629
2187.9473,0.002037
2189.8110,0.000730
2191.6746,0.000465
2193.5383,0.001010
2195.4020,0.000212
2197.2657,-0.001099
2199.1293,-0.001081
2200.9930,-0.000025
2202.8567,0.000789
2204.7203,0.000510
2206.5840,-0.000093
2208.4477,0.000410
2210.3113,0.000721
2212.1750,-0.000042
2214.0387,-0.000224
2215.9023,0.000874
2217.7660,0.001098
2219.6297,0.000158
2221.4934,0.000076
2223.3570,0.000810
2225.2207,0.001387
2227.0844,0.000907
2228.9480,-0.000055
2230.8117,-0.000548
2232.6754,-0.000414
2234.5390,-0.000112
2236.4027,-0.000150
2238.2664,0.000122
2240.1300,0.000359
2241.9937,-0.000038
2243.8574,-0.000189
2245.7210,-0.000177
2247.5847,-0.000317
2249.4484,-0.000459
2251.3121,-0.000678
2253.1757,-0.000788
2255.0394,-0.000792
2256.9031,-0.000538
2258.7667,0.000145
2260.6304,0.000173
2262.4941,-0.000511
2264.3577,-0.000545
2266.2214,-0.000502
2268.0851,-0.000705
2269.9487,-0.000693
2271.8124,-0.000611
2273.6761,-0.000297
2275.5397,-0.000413
2277.4034,-0.000763
2279.2671,-0.000637
2281.1308,-0.000470
2282.9944,-0.000331
2284.8581,-0.000407
2286.7218,-0.000624
2288.5854,-0.000647
2290.4491,-0.001099
2292.3128,-0.001719
2294.1764,-0.001897
2296.0401,-0.001708
2297.9038,-0.001414
2299.7674,-0.001651
2301.6311,-0.001940
2303.4948,-0.001834
2305.3585,-0.001778
2307.2221,-0.001731
2309.0858,-0.001589
2310.9495,-0.001794
2312.8131,-0.002218
2314.6768,-0.001930
2316.5405,-0.001201
2318.4041,-0.001235
2320.2678,-0.001233
2322.1315,-0.000828
2323.9951,-0.001136
2325.8588,-0.001704
2327.7225,-0.002338
2329.5861,-0.002809
2331.4498,-0.002392
2333.3135,-0.002163
2335.1772,-0.002745
2337.0408,-0.002965
2338.9045,-0.002243
2340.7682,-0.001955
2342.6318,-0.002485
2344.4955,-0.002536
2346.3592,-0.002577
2348.2228,-0.002967
2350.0865,-0.003269
2351.9502,-0.003192
2353.8138,-0.002893
2355.6775,-0.002982
2357.5412,-0.002365
2359.4049,-0.001522
2361.2685,-0.001844
2363.1322,-0.002354
2364.9959,-0.002187
2366.8595,-0.001792
2368.7232,-0.002068
2370.5869,-0.002332
2372.4505,-0.002110
2374.3142,-0.002182
2376.1779,-0.002389
2378.0415,-0.002321
2379.9052,-0.002262
2381.7689,-0.002296
2383.6325,-0.002307
2385.4962,-0.002578
2387.3599,-0.002873
2389.2236,-0.002796
2391.0872,-0.002712
2392.9509,-0.002697
2394.8146,-0.002605
2396.6782,-0.002274
2398.5419,-0.002134
2400.4056,-0.002326
2402.2692,-0.002308
2404.1329,-0.001920
2405.9966,-0.001919
2407.8602,-0.002166
2409.7239,-0.001952
2411.5876,-0.001822
2413.4512,-0.001879
2415.3149,-0.001902
2417.1786,-0.001797
2419.0423,-0.001675
2420.9059,-0.001773
2422.7696,-0.001715
2424.6333,-0.001545
2426.4969,-0.001776
2428.3606,-0.001879
2430.2243,-0.001588
2432.0879,-0.001469
2433.9516,-0.001320
2435.8153,-0.001106
2437.6789,-0.001129
2439.5426,-0.001224
2441.4063,-0.001047
2443.2700,-0.000876
2445.1336,-0.001159
2446.9973,-0.001323
2448.8610,-0.001054
2450.7246,-0.000871
2452.5883,-0.000952
2454.4520,-0.001068
2456.3156,-0.001124
2458.1793,-0.001041
2460.0430,-0.000940
2461.9066,-0.000929
2463.7703,-0.001024
2465.6340,-0.000753
2467.4976,-0.000785
2469.3613,-0.001100
2471.2250,-0.000982
2473.0887,-0.000789
2474.9523,-0.000661
2476.8160,-0.000816
2478.6797,-0.000870
2480.5433,-0.000661
2482.4070,-0.000603
2484.2707,-0.000662
2486.1343,-0.000665
2487.9980,-0.000543
2489.8617,-0.000447
2491.7253,-0.000431
2493.5890,-0.000620
2495.4527,-0.000660
2497.3164,-0.000416
2499.1800,-0.000472
2501.0437,-0.000645
2502.9074,-0.000498
2504.7710,-0.000355
2506.6347,-0.000338
2508.4984,-0.000228
2510.3620,-0.000398
2512.2257,-0.000333
2514.0894,-0.000080
2515.9530,-0.000173
2517.8167,-0.000041
2519.6804,-0.000255
2521.5440,-0.000511
2523.4077,-0.000516
2525.2714,-0.000372
2527.1351,-0.000058
2528.9987,0.000046
2530.8624,0.000119
2532.7261,0.000117
2534.5897,-0.000180
2536.4534,-0.000246
2538.3171,0.000053
2540.1807,0.000217
2542.0444,0.000065
2543.9081,0.000093
2545.7717,0.000111
2547.6354,0.000289
2549.4991,0.000446
2551.3627,0.000277
2553.2264,0.000395
2555.0901,0.000682
2556.9538,0.000642
2558.8174,0.000486
2560.6811,0.000194
2562.5448,-0.000052
2564.4084,0.000216
2566.2721,0.000471
2568.1358,0.000538
2569.9994,0.000703
2571.8631,0.000908
2573.7268,0.001109
2575.5904,0.000760
2577.4541,0.000464
2579.3178,0.000800
2581.1815,0.001032
2583.0451,0.001108
2584.9088,0.001294
2586.7725,0.001122
2588.6361,0.000875
2590.4998,0.001151
2592.3635,0.001166
2594.2271,0.000975
2596.0908,0.001135
2597.9545,0.001437
2599.8181,0.001566
2601.6818,0.001624
2603.5455,0.001477
2605.4091,0.001100
2607.2728,0.001265
2609.1365,0.001635
2611.0002,0.001907
2612.8638,0.001964
2614.7275,0.001662
2616.5912,0.001765
2618.4548,0.001824
2620.3185,0.001633
2622.1822,0.001632
2624.0458,0.001711
2625.9095,0.001919
2627.7732,0.002083
2629.6368,0.002174
2631.5005,0.002210
2633.3642,0.002171
2635.2279,0.002278
2637.0915,0.002307
2638.9552,0.002233
2640.8189,0.002272
2642.6825,0.002224
2644.5462,0.002188
2646.4099,0.002309
2648.2735,0.002349
2650.1372,0.002412
2652.0009,0.002627
2653.8645,0.002560
2655.7282,0.002265
2657.5919,0.002244
2659.4555,0.002292
2661.3192,0.002297
2663.1829,0.002296
2665.0466,0.002193
2666.9102,0.002246
2668.7739,0.002291
2670.6376,0.002140
2672.5012,0.002126
2674.3649,0.002237
2676.2286,0.002379
2678.0922,0.002422
2679.9559,0.002517
2681.8196,0.002541
2683.6832,0.002418
2685.5469,0.002522
2687.4106,0.002606
2689.2742,0.002570
2691.1379,0.002653
2693.0016,0.002847
2694.8653,0.002812
2696.7289,0.002740
2698.5926,0.002831
2700.4563,0.002854
2702.3199,0.003052
2704.1836,0.003293
2706.0473,0.003237
2707.9109,0.003091
2709.7746,0.003172
2711.6383,0.003263
2713.5019,0.003344
2715.3656,0.003418
2717.2293,0.003525
2719.0930,0.003611
2720.9566,0.003630
2722.8203,0.003725
2724.6840,0.003743
2726.5476,0.003705
2728.4113,0.003686
2730.2750,0.003747
2732.1386,0.003828
2734.0023,0.003892
2735.8660,0.003905
2737.7296,0.004034
2739.5933,0.004164
2741.4570,0.004176
2743.3206,0.004116
2745.1843,0.004133
2747.0480,0.004257
2748.9117,0.004378
2750.7753,0.004501
2752.6390,0.004489
2754.5027,0.004514
2756.3663,0.004611
2758.2300,0.004702
2760.0937,0.004883
2761.9573,0.004967
2763.8210,0.005128
2765.6847,0.005249
2767.5483,0.005226
2769.4120,0.005110
2771.2757,0.005243
2773.1394,0.005466
2775.0030,0.005403
2776.8667,0.005408
2778.7304,0.005455
2780.5940,0.005577
2782.4577,0.005654
2784.3214,0.005875
2786.1850,0.006034
2788.0487,0.005961
2789.9124,0.005982
2791.7760,0.006193
2793.6397,0.006421
2795.5034,0.006428
2797.3670,0.006452
2799.2307,0.006704
2801.0944,0.006820
2802.9581,0.006875
2804.8217,0.006939
2806.6854,0.007061
2808.5491,0.007177
2810.4127,0.007256
2812.2764,0.007288
2814.1401,0.007419
2816.0037,0.007582
2817.8674,0.007810
2819.7311,0.008016
2821.5947,0.008013
2823.4584,0.008135
2825.3221,0.008431
2827.1857,0.008550
2829.0494,0.008532
2830.9131,0.008771
2832.7768,0.009126
2834.6404,0.009482
2836.5041,0.009569
2838.3678,0.009714
2840.2314,0.009828
2842.0951,0.010037
2843.9588,0.010633
2845.8224,0.011136
2847.6861,0.011476
2849.5498,0.011834
2851.4134,0.012333
2853.2771,0.012569
2855.1408,0.012791
2857.0045,0.012860
2858.8681,0.012546
2860.7318,0.012414
2862.5955,0.012710
2864.4591,0.012989
2866.3228,0.013146
2868.1865,0.013171
2870.0501,0.013400
2871.9138,0.013624
2873.7775,0.013620
2875.6411,0.013508
2877.5048,0.013296
2879.3685,0.013290
2881.2321,0.013555
2883.0958,0.013720
2884.9595,0.013842
2886.8232,0.013983
2888.6868,0.013969
2890.5505,0.013837
2892.4142,0.013867
2894.2778,0.014165
2896.1415,0.014265
2898.0052,0.014350
2899.8688,0.014638
2901.7325,0.014683
2903.5962,0.014764
2905.4598,0.015056
2907.3235,0.015207
2909.1872,0.015528
2911.0509,0.015876
2912.9145,0.016006
2914.7782,0.016342
2916.6419,0.016694
2918.5055,0.017125
2920.3692,0.017511
2922.2329,0.017595
2924.0965,0.017769
2925.9602,0.017913
2927.8239,0.017842
2929.6875,0.017564
2931.5512,0.017349
2933.4149,0.017100
2935.2785,0.016700
2937.1422,0.016465
2939.0059,0.016285
2940.8696,0.015735
2942.7332,0.015385
2944.5969,0.015325
2946.4606,0.015223
2948.3242,0.015195
2950.1879,0.015165
2952.0516,0.015030
2953.9152,0.015129
2955.7789,0.015444
2957.6426,0.015605
2959.5062,0.015740
2961.3699,0.015562
2963.2336,0.015249
2965.0972,0.014919
2966.9609,0.014502
2968.8246,0.014064
2970.6883,0.013702
2972.5519,0.013682
2974.4156,0.013480
2976.2793,0.012997
2978.1429,0.012546
2980.0066,0.012171
2981.8703,0.011884
2983.7339,0.011955
2985.5976,0.011912
2987.4613,0.011595
2989.3249,0.011204
2991.1886,0.011127
2993.0523,0.010933
2994.9160,0.010669
2996.7796,0.010813
2998.6433,0.010957
3000.5070,0.010990
3002.3706,0.011040
3004.2343,0.011132
3006.0980,0.011275
3007.9616,0.011129
3009.8253,0.011154
3011.6890,0.011292
3013.5526,0.011493
3015.4163,0.011269
3017.2800,0.011294
3019.1436,0.011669
3021.0073,0.012021
3022.8710,0.012140
3024.7347,0.012034
3026.5983,0.012224
3028.4620,0.012861
3030.3257,0.013121
3032.1893,0.013054
3034.0530,0.012990
3035.9167,0.012945
3037.7803,0.013151
3039.6440,0.013383
3041.5077,0.013846
3043.3713,0.014147
3045.2350,0.014098
3047.0987,0.014077
3048.9624,0.014226
3050.8260,0.014375
3052.6897,0.014310
3054.5534,0.014678
3056.4170,0.015073
3058.2807,0.015166
3060.1444,0.015444
3062.0080,0.015718
3063.8717,0.015616
3065.7354,0.015682
3067.5990,0.015766
3069.4627,0.015796
3071.3264,0.016056
3073.1900,0.016351
3075.0537,0.016444
3076.9174,0.016121
3078.7811,0.015914
3080.6447,0.016080
3082.5084,0.016442
3084.3721,0.016647
3086.2357,0.016570
3088.0994,0.016464
3089.9631,0.016401
3091.8267,0.016551
3093.6904,0.016621
3095.5541,0.016556
3097.4177,0.016610
3099.2814,0.016845
3101.1451,0.016765
3103.0087,0.016740
3104.8724,0.016655
3106.7361,0.016621
3108.5998,0.016993
3110.4634,0.017147
3112.3271,0.017232
3114.1908,0.017290
3116.0544,0.017326
3117.9181,0.017198
3119.7818,0.017310
3121.6454,0.017551
3123.5091,0.017808
3125.3728,0.017887
3127.2364,0.018197
3129.1001,0.018528
3130.9638,0.018898
3132.8275,0.019055
3134.6911,0.019473
3136.5548,0.019357
3138.4185,0.018890
3140.2821,0.018866
3142.1458,0.019247
3144.0095,0.019763
3145.8731,0.019948
3147.7368,0.020031
3149.6005,0.020339
3151.4641,0.020692
3153.3278,0.020786
3155.1915,0.021126
3157.0551,0.021642
3158.9188,0.021712
3160.7825,0.021911
3162.6462,0.022265
3164.5098,0.022512
3166.3735,0.022640
3168.2372,0.022696
3170.1008,0.022740
3171.9645,0.023021
3173.8282,0.023332
3175.6918,0.023615
3177.5555,0.023732
3179.4192,0.023895
3181.2828,0.024195
3183.1465,0.024710
3185.0102,0.024814
3186.8739,0.024523
3188.7375,0.024671
3190.6012,0.025266
3192.4649,0.025518
3194.3285,0.025455
3196.1922,0.025708
3198.0559,0.026052
3199.9195,0.026243
3201.7832,0.026496
3203.6469,0.026481
3205.5105,0.026270
3207.3742,0.026742
3209.2379,0.026983
3211.1015,0.027022
3212.9652,0.027386
3214.8289,0.026875
3216.6926,0.026456
3218.5562,0.026482
3220.4199,0.026833
3222.2836,0.027637
3224.1472,0.028053
3226.0109,0.028078
3227.8746,0.028217
3229.7382,0.028297
3231.6019,0.028483
3233.4656,0.028474
3235.3292,0.028397
3237.1929,0.028606
3239.0566,0.028638
3240.9202,0.028392
3242.7839,0.028569
3244.6476,0.029225
3246.5113,0.029158
3248.3749,0.028775
3250.2386,0.028794
3252.1023,0.029029
3253.9659,0.029626
3255.8296,0.029983
3257.6933,0.029784
3259.5569,0.029580
3261.4206,0.029999
3263.2843,0.029882
3265.1479,0.029585
3267.0116,0.029884
3268.8753,0.030102
3270.7390,0.029782
3272.6026,0.029748
3274.4663,0.029719
3276.3300,0.029994
3278.1936,0.030009
3280.0573,0.029681
3281.9210,0.029298
3283.7846,0.029309
3285.6483,0.029785
3287.5120,0.029896
3289.3756,0.029663
3291.2393,0.029665
3293.1030,0.029451
3294.9666,0.028843
3296.8303,0.028541
3298.6940,0.028567
3300.5577,0.028392
3302.4213,0.028475
3304.2850,0.028283
3306.1487,0.027998
3308.0123,0.027892
3309.8760,0.027928
3311.7397,0.027952
3313.6033,0.027700
3315.4670,0.026955
3317.3307,0.026852
3319.1943,0.026814
3321.0580,0.026641
3322.9217,0.026837
3324.7854,0.027142
3326.6490,0.026635
3328.5127,0.026338
3330.3764,0.026501
3332.2400,0.026433
3334.1037,0.026137
3335.9674,0.026016
3337.8310,0.025933
3339.6947,0.026046
3341.5584,0.026083
3343.4220,0.026097
3345.2857,0.025991
3347.1494,0.025149
3349.0130,0.024515
3350.8767,0.025086
3352.7404,0.025506
3354.6041,0.025574
3356.4677,0.025063
3358.3314,0.024486
3360.1951,0.024434
3362.0587,0.024351
3363.9224,0.024140
3365.7861,0.024188
3367.6497,0.024243
3369.5134,0.023926
3371.3771,0.023600
3373.2407,0.023318
3375.1044,0.023297
3376.9681,0.023405
3378.8317,0.023182
3380.6954,0.022745
3382.5591,0.022850
3384.4228,0.023059
3386.2864,0.022701
3388.1501,0.022776
3390.0138,0.022620
3391.8774,0.022474
3393.7411,0.022210
3395.6048,0.021660
3397.4684,0.021345
3399.3321,0.021602
3401.1958,0.021802
3403.0594,0.021476
3404.9231,0.021244
3406.7868,0.021201
3408.6505,0.020803
3410.5141,0.020557
3412.3778,0.020480
3414.2415,0.020412
3416.1051,0.020219
3417.9688,0.019795
3419.8325,0.019901
3421.6961,0.019920
3423.5598,0.019648
3425.4235,0.018946
3427.2871,0.018319
3429.1508,0.018445
3431.0145,0.018767
3432.8781,0.018355
3434.7418,0.017922
3436.6055,0.018022
3438.4692,0.017798
3440.3328,0.017880
3442.1965,0.017878
3444.0602,0.017910
3445.9238,0.017928
3447.7875,0.017648
3449.6512,0.017508
3451.5148,0.017375
3453.3785,0.016893
3455.2422,0.016013
3457.1058,0.015363
3458.9695,0.015140
3460.8332,0.014811
3462.6969,0.014777
3464.5605,0.015025
3466.4242,0.014730
3468.2879,0.013899
3470.1515,0.014135
3472.0152,0.014794
3473.8789,0.014378
3475.7425,0.013580
3477.6062,0.012949
3479.4699,0.013182
3481.3335,0.013254
3483.1972,0.013106
3485.0609,0.013328
3486.9245,0.012423
3488.7882,0.011639
3490.6519,0.011991
3492.5156,0.012254
3494.3792,0.011548
3496.2429,0.010998
3498.1066,0.011332
3499.9702,0.011087
3501.8339,0.010469
3503.6976,0.010390
3505.5612,0.010405
3507.4249,0.010337
3509.2886,0.009882
3511.1522,0.009474
3513.0159,0.009357
3514.8796,0.008788
3516.7432,0.008419
3518.6069,0.008546
3520.4706,0.008465
3522.3343,0.008165
3524.1979,0.007807
3526.0616,0.007316
3527.9253,0.006612
3529.7889,0.006373
3531.6526,0.006420
3533.5163,0.006194
3535.3799,0.006170
3537.2436,0.006278
3539.1073,0.005863
3540.9709,0.005368
3542.8346,0.005060
3544.6983,0.004300
3546.5620,0.003870
3548.4256,0.004342
3550.2893,0.004468
3552.1530,0.004023
3554.0166,0.003948
3555.8803,0.003390
3557.7440,0.002715
3559.6076,0.002961
3561.4713,0.003060
3563.3350,0.002709
3565.1986,0.002057
3567.0623,0.001767
3568.9260,0.001980
3570.7896,0.001829
3572.6533,0.001618
3574.5170,0.001281
3576.3807,0.000654
3578.2443,0.000635
3580.1080,0.000653
3581.9717,-0.000197
3583.8353,-0.000637
3585.6990,-0.000579
3587.5627,-0.001124
3589.4263,-0.001361
3591.2900,-0.000998
3593.1537,-0.000808
3595.0173,-0.000582
3596.8810,-0.001105
3598.7447,-0.001788
3600.6084,-0.001662
3602.4720,-0.001950
3604.3357,-0.002789
3606.1994,-0.003250
3608.0630,-0.003512
3609.9267,-0.003354
3611.7904,-0.003086
3613.6540,-0.003322
3615.5177,-0.003776
3617.3814,-0.003851
3619.2450,-0.003806
3621.1087,-0.003986
3622.9724,-0.004155
3624.8360,-0.004205
3626.6997,-0.004621
3628.5634,-0.005102
3630.4271,-0.005054
3632.2907,-0.004461
3634.1544,-0.004181
3636.0181,-0.004681
3637.8817,-0.005390
3639.7454,-0.005665
3641.6091,-0.005597
3643.4727,-0.005584
3645.3364,-0.005799
3647.2001,-0.006198
3649.0637,-0.006452
3650.9274,-0.006104
3652.7911,-0.005893
3654.6547,-0.006245
3656.5184,-0.006589
3658.3821,-0.006699
3660.2458,-0.006877
3662.1094,-0.006648
3663.9731,-0.006562
3665.8368,-0.006918
3667.7004,-0.006994
3669.5641,-0.006981
3671.4278,-0.007183
3673.2914,-0.007293
3675.1551,-0.007353
3677.0188,-0.007368
3678.8824,-0.007158
3680.7461,-0.006957
3682.6098,-0.006951
3684.4735,-0.007204
3686.3371,-0.007657
3688.2008,-0.008158
3690.0645,-0.008286
3691.9281,-0.008118
3693.7918,-0.008017
3695.6555,-0.007848
3697.5191,-0.007780
3699.3828,-0.007725
3701.2465,-0.007587
3703.1101,-0.007612
3704.9738,-0.007963
3706.8375,-0.007980
3708.7011,-0.007621
3710.5648,-0.007498
3712.4285,-0.007186
3714.2922,-0.006858
3716.1558,-0.007240
3718.0195,-0.007825
3719.8832,-0.007984
3721.7468,-0.007886
3723.6105,-0.007778
3725.4742,-0.007831
3727.3378,-0.007870
3729.2015,-0.007350
3731.0652,-0.007148
3732.9288,-0.007504
3734.7925,-0.007567
3736.6562,-0.007505
3738.5199,-0.007345
3740.3835,-0.007404
3742.2472,-0.007826
3744.1109,-0.008170
3745.9745,-0.008087
3747.8382,-0.007890
3749.7019,-0.008043
3751.5655,-0.008257
3753.4292,-0.007835
3755.2929,-0.007296
3757.1565,-0.007407
3759.0202,-0.007719
3760.8839,-0.007783
3762.7475,-0.007629
3764.6112,-0.007607
3766.4749,-0.007571
3768.3386,-0.007504
3770.2022,-0.007645
3772.0659,-0.007298
3773.9296,-0.006943
3775.7932,-0.007325
3777.6569,-0.007680
3779.5206,-0.007496
3781.3842,-0.007263
3783.2479,-0.007365
3785.1116,-0.007503
3786.9752,-0.007426
3788.8389,-0.007411
3790.7026,-0.007498
3792.5662,-0.007414
3794.4299,-0.007194
3796.2936,-0.007386
3798.1573,-0.007690
3800.0209,-0.007598
3801.8846,-0.007589
3803.7483,-0.007278
3805.6119,-0.007444
3807.4756,-0.007943
3809.3393,-0.007387
3811.2029,-0.006975
3813.0666,-0.007176
3814.9303,-0.007994
3816.7939,-0.008612
3818.6576,-0.007891
3820.5213,-0.007739
3822.3850,-0.007702
3824.2486,-0.007133
3826.1123,-0.007194
3827.9760,-0.007489
3829.8396,-0.007727
3831.7033,-0.007744
3833.5670,-0.007684
3835.4306,-0.007732
3837.2943,-0.007729
3839.1580,-0.007788
3841.0216,-0.007448
3842.8853,-0.007183
3844.7490,-0.007311
3846.6126,-0.007426
3848.4763,-0.007355
3850.3400,-0.007220
3852.2037,-0.007598
3854.0673,-0.007735
3855.9310,-0.006945
3857.7947,-0.006780
3859.6583,-0.007330
3861.5220,-0.007837
3863.3857,-0.007946
3865.2493,-0.007932
3867.1130,-0.007781
3868.9767,-0.007473
3870.8403,-0.007304
3872.7040,-0.007237
3874.5677,-0.007460
3876.4314,-0.007229
3878.2950,-0.007282
3880.1587,-0.007882
3882.0224,-0.007560
3883.8860,-0.007001
3885.7497,-0.007138
3887.6134,-0.007043
3889.4770,-0.007161
3891.3407,-0.007749
3893.2044,-0.007630
3895.0680,-0.007102
3896.9317,-0.006981
3898.7954,-0.007138
3900.6590,-0.007148
3902.5227,-0.006922
3904.3864,-0.007214
3906.2501,-0.007388
3908.1137,-0.007290
3909.9774,-0.007393
3911.8411,-0.007257
3913.7047,-0.007234
3915.5684,-0.007581
3917.4321,-0.007623
3919.2957,-0.007285
3921.1594,-0.007333
3923.0231,-0.007774
3924.8867,-0.007516
3926.7504,-0.006973
3928.6141,-0.007366
3930.4777,-0.007730
3932.3414,-0.007264
3934.2051,-0.007055
3936.0688,-0.007182
3937.9324,-0.007384
3939.7961,-0.007292
3941.6598,-0.007084
3943.5234,-0.006982
3945.3871,-0.006691
3947.2508,-0.006981
3949.1144,-0.007303
3950.9781,-0.007104
3952.8418,-0.007023
3954.7054,-0.007117
3956.5691,-0.007086
3958.4328,-0.006929
3960.2965,-0.007060
3962.1601,-0.007247
3964.0238,-0.007431
3965.8875,-0.007410
3967.7511,-0.007015
3969.6148,-0.007028
3971.4785,-0.007346
3973.3421,-0.007319
3975.2058,-0.007217
3977.0695,-0.007088
3978.9331,-0.007274
3980.7968,-0.007378
3982.6605,-0.007163
3984.5241,-0.007054
3986.3878,-0.006859
3988.2515,-0.006690
3990.1152,-0.006846
3991.9788,-0.006946
3993.8425,-0.006838
3995.7062,-0.006868
3997.5698,-0.007263
3999.4335,-0.007252
