Wavenumber,Intensity
650.4205,0.045869
652.2841,0.047866
654.1478,0.049950
656.0115,0.050077
657.8751,0.047902
659.7388,0.046576
661.6025,0.045268
663.4661,0.044286
665.3298,0.044943
667.1935,0.047434
669.0571,0.048830
670.9208,0.045830
672.7845,0.044273
674.6481,0.044278
676.5118,0.044766
678.3755,0.044544
680.2392,0.043989
682.1028,0.043004
683.9665,0.041919
685.8302,0.041529
687.6938,0.042316
689.5575,0.042757
691.4212,0.041151
693.2848,0.040142
695.1485,0.040598
697.0122,0.040788
698.8758,0.040338
700.7395,0.039999
702.6032,0.039946
704.4669,0.039227
706.3305,0.038678
708.1942,0.038639
710.0579,0.038277
711.9215,0.037058
713.7852,0.036244
715.6489,0.036793
717.5125,0.037024
719.3762,0.036614
721.2399,0.036199
723.1035,0.034961
724.9672,0.033863
726.8309,0.033182
728.6945,0.032689
730.5582,0.033043
732.4219,0.033134
734.2856,0.032954
736.1492,0.032495
738.0129,0.032202
739.8766,0.032656
741.7402,0.032663
743.6039,0.032402
745.4676,0.032493
747.3312,0.032087
749.1949,0.031183
751.0586,0.030753
752.9222,0.031036
754.7859,0.031271
756.6496,0.030832
758.5132,0.030535
760.3769,0.030336
762.2406,0.030293
764.1043,0.030717
765.9679,0.030886
767.8316,0.030882
769.6953,0.030829
771.5589,0.031024
773.4226,0.030979
775.2863,0.030263
777.1499,0.029950
779.0136,0.029995
780.8773,0.029972
782.7409,0.029944
784.6046,0.029537
786.4683,0.028939
788.3320,0.028306
790.1956,0.027849
792.0593,0.027845
793.9230,0.027891
795.7866,0.027721
797.6503,0.027423
799.5140,0.027260
801.3776,0.027451
803.2413,0.027690
805.1050,0.027816
806.9686,0.028071
808.8323,0.028431
810.6960,0.028573
812.5596,0.028432
814.4233,0.028198
816.2870,0.027829
818.1507,0.027544
820.0143,0.027297
821.8780,0.026954
823.7417,0.026615
825.6053,0.026265
827.4690,0.026135
829.3327,0.025950
831.1963,0.026101
833.0600,0.026420
834.9237,0.026197
836.7873,0.025836
838.6510,0.025561
840.5147,0.025348
842.3784,0.025099
844.2420,0.024622
846.1057,0.024287
847.9694,0.024139
849.8330,0.023841
851.6967,0.023630
853.5604,0.023777
855.4240,0.023956
857.2877,0.023832
859.1514,0.023886
861.0150,0.024283
862.8787,0.024232
864.7424,0.024085
866.6060,0.024430
868.4697,0.024741
870.3334,0.024716
872.1971,0.024680
874.0607,0.024787
875.9244,0.024668
877.7881,0.024348
879.6517,0.024106
881.5154,0.023838
883.3791,0.023482
885.2427,0.023236
887.1064,0.023066
888.9701,0.022947
890.8337,0.022828
892.6974,0.022746
894.5611,0.022836
896.4247,0.022827
898.2884,0.022641
900.1521,0.022589
902.0158,0.022536
903.8794,0.022254
905.7431,0.022239
907.6068,0.022431
909.4704,0.022378
911.3341,0.022429
913.1978,0.022622
915.0614,0.022928
916.9251,0.023383
918.7888,0.023636
920.6524,0.023791
922.5161,0.023984
924.3798,0.024391
926.2435,0.024770
928.1071,0.024723
929.9708,0.024601
931.8345,0.024783
933.6981,0.025091
935.5618,0.025437
937.4255,0.025895
939.2891,0.026362
941.1528,0.026879
943.0165,0.027586
944.8801,0.028335
946.7438,0.029011
948.6075,0.029453
950.4711,0.029670
952.3348,0.029810
954.1985,0.030098
956.0622,0.030598
957.9258,0.031296
959.7895,0.032213
961.6532,0.033407
963.5168,0.034820
965.3805,0.036135
967.2442,0.037014
969.1078,0.037658
970.9715,0.038260
972.8352,0.038829
974.6988,0.039538
976.5625,0.040518
978.4262,0.041601
980.2899,0.042628
982.1535,0.043628
984.0172,0.044656
985.8809,0.045614
987.7445,0.046469
989.6082,0.047185
991.4719,0.047948
993.3355,0.048704
995.1992,0.049355
997.0629,0.049933
998.9265,0.050515
1000.7902,0.051145
1002.6539,0.051815
1004.5175,0.052615
1006.3812,0.053666
1008.2449,0.054944
1010.1086,0.056360
1011.9722,0.057954
1013.8359,0.059762
1015.6996,0.061530
1017.5632,0.062990
1019.4269,0.064107
1021.2906,0.064980
1023.1542,0.065617
1025.0179,0.066114
1026.8816,0.066574
1028.7452,0.067121
1030.6089,0.067654
1032.4726,0.068049
1034.3362,0.068291
1036.1999,0.068382
1038.0636,0.068369
1039.9273,0.068257
1041.7909,0.067923
1043.6546,0.067582
1045.5183,0.067246
1047.3819,0.066867
1049.2456,0.066686
1051.1093,0.066848
1052.9729,0.066950
1054.8366,0.066975
1056.7003,0.067138
1058.5639,0.067329
1060.4276,0.067410
1062.2913,0.067417
1064.1550,0.067390
1066.0186,0.067506
1067.8823,0.067517
1069.7460,0.067226
1071.6096,0.066870
1073.4733,0.066426
1075.3370,0.065589
1077.2006,0.064364
1079.0643,0.063038
1080.9280,0.061585
1082.7916,0.059910
1084.6553,0.058101
1086.5190,0.056352
1088.3826,0.054772
1090.2463,0.053379
1092.1100,0.052157
1093.9737,0.051037
1095.8373,0.049965
1097.7010,0.048958
1099.5647,0.048062
1101.4283,0.047279
1103.2920,0.046616
1105.1557,0.045988
1107.0193,0.045398
1108.8830,0.044920
1110.7467,0.044507
1112.6103,0.043989
1114.4740,0.043384
1116.3377,0.042777
1118.2014,0.042188
1120.0650,0.041528
1121.9287,0.040791
1123.7924,0.040027
1125.6560,0.039240
1127.5197,0.038378
1129.3834,0.037530
1131.2470,0.036590
1133.1107,0.035623
1134.9744,0.034663
1136.8380,0.033650
1138.7017,0.032765
1140.5654,0.032033
1142.4290,0.031348
1144.2927,0.030811
1146.1564,0.030434
1148.0201,0.030103
1149.8837,0.029825
1151.7474,0.029613
1153.6111,0.029354
1155.4747,0.028938
1157.3384,0.028436
1159.2021,0.027936
1161.0657,0.027431
1162.9294,0.026819
1164.7931,0.026036
1166.6567,0.025313
1168.5204,0.024564
1170.3841,0.023627
1172.2477,0.022549
1174.1114,0.021359
1175.9751,0.020192
1177.8388,0.019303
1179.7024,0.018606
1181.5661,0.017938
1183.4298,0.017618
1185.2934,0.017653
1187.1571,0.017646
1189.0208,0.017689
1190.8844,0.017901
1192.7481,0.018247
1194.6118,0.018684
1196.4754,0.019170
1198.3391,0.019821
1200.2028,0.020524
1202.0665,0.021144
1203.9301,0.021677
1205.7938,0.022089
1207.6575,0.022510
1209.5211,0.022995
1211.3848,0.023420
1213.2485,0.023866
1215.1121,0.024294
1216.9758,0.024808
1218.8395,0.025362
1220.7031,0.025861
1222.5668,0.026403
1224.4305,0.026922
1226.2941,0.027456
1228.1578,0.027931
1230.0215,0.028289
1231.8852,0.028691
1233.7488,0.028987
1235.6125,0.029154
1237.4762,0.029302
1239.3398,0.029325
1241.2035,0.029294
1243.0672,0.029228
1244.9308,0.029061
1246.7945,0.028890
1248.6582,0.028702
1250.5218,0.028411
1252.3855,0.028054
1254.2492,0.027724
1256.1129,0.027450
1257.9765,0.027141
1259.8402,0.026921
1261.7039,0.026755
1263.5675,0.026426
1265.4312,0.026182
1267.2949,0.026002
1269.1585,0.025802
1271.0222,0.025702
1272.8859,0.025576
1274.7495,0.025297
1276.6132,0.025113
1278.4769,0.025184
1280.3405,0.025163
1282.2042,0.025044
1284.0679,0.024896
1285.9316,0.024918
1287.7952,0.025024
1289.6589,0.025154
1291.5226,0.025384
1293.3862,0.025668
1295.2499,0.025992
1297.1136,0.026257
1298.9772,0.026536
1300.8409,0.026944
1302.7046,0.027279
1304.5682,0.027459
1306.4319,0.027636
1308.2956,0.027858
1310.1592,0.027962
1312.0229,0.028144
1313.8866,0.028331
1315.7503,0.028213
1317.6139,0.028054
1319.4776,0.028063
1321.3413,0.027943
1323.2049,0.027720
1325.0686,0.027427
1326.9323,0.027140
1328.7959,0.027032
1330.6596,0.027062
1332.5233,0.027055
1334.3869,0.027012
1336.2506,0.027009
1338.1143,0.027249
1339.9780,0.027718
1341.8416,0.027829
1343.7053,0.027777
1345.5690,0.027866
1347.4326,0.027809
1349.2963,0.027775
1351.1600,0.027840
1353.0236,0.027926
1354.8873,0.027944
1356.7510,0.027810
1358.6146,0.027725
1360.4783,0.027932
1362.3420,0.028654
1364.2056,0.029502
1366.0693,0.029918
1367.9330,0.030437
1369.7967,0.030990
1371.6603,0.031351
1373.5240,0.031978
1375.3877,0.032644
1377.2513,0.032674
1379.1150,0.032665
1380.9787,0.032574
1382.8423,0.032392
1384.7060,0.032331
1386.5697,0.032557
1388.4333,0.033096
1390.2970,0.033043
1392.1607,0.032840
1394.0244,0.033188
1395.8880,0.033874
1397.7517,0.034160
1399.6154,0.034536
1401.4790,0.034507
1403.3427,0.034114
1405.2064,0.034180
1407.0700,0.034079
1408.9337,0.033591
1410.7974,0.033003
1412.6610,0.032404
1414.5247,0.031478
1416.3884,0.030563
1418.2520,0.030358
1420.1157,0.030568
1421.9794,0.029852
1423.8431,0.029197
1425.7067,0.028805
1427.5704,0.028366
1429.4341,0.028544
1431.2977,0.028727
1433.1614,0.028299
1435.0251,0.028204
1436.8887,0.029183
1438.7524,0.029518
1440.6161,0.028999
1442.4797,0.028791
1444.3434,0.028654
1446.2071,0.028616
1448.0707,0.028650
1449.9344,0.028424
1451.7981,0.027660
1453.6618,0.026878
1455.5254,0.026160
1457.3891,0.026807
1459.2528,0.026572
1461.1164,0.025349
1462.9801,0.024432
1464.8438,0.024266
1466.7074,0.023809
1468.5711,0.022674
1470.4348,0.021738
1472.2984,0.021546
1474.1621,0.021397
1476.0258,0.021008
1477.8895,0.020810
1479.7531,0.020409
1481.6168,0.020265
1483.4805,0.020359
1485.3441,0.020475
1487.2078,0.021191
1489.0715,0.022611
1490.9351,0.023917
1492.7988,0.024188
1494.6625,0.024551
1496.5261,0.026286
1498.3898,0.027990
1500.2535,0.028679
1502.1171,0.028748
1503.9808,0.028895
1505.8445,0.031342
1507.7082,0.035910
1509.5718,0.036625
1511.4355,0.036827
1513.2992,0.037514
1515.1628,0.038174
1517.0265,0.039309
1518.8902,0.039750
1520.7538,0.040496
1522.6175,0.042608
1524.4812,0.042960
1526.3448,0.043736
1528.2085,0.044293
1530.0722,0.044024
1531.9359,0.044250
1533.7995,0.045847
1535.6632,0.045635
1537.5269,0.044172
1539.3905,0.045337
1541.2542,0.047907
1543.1179,0.048113
1544.9815,0.048065
1546.8452,0.047289
1548.7089,0.046071
1550.5725,0.045615
1552.4362,0.044782
1554.2999,0.043674
1556.1635,0.042535
1558.0272,0.042138
1559.8909,0.044333
1561.7546,0.042771
1563.6182,0.040771
1565.4819,0.039783
1567.3456,0.038676
1569.2092,0.038187
1571.0729,0.038025
1572.9366,0.036413
1574.8002,0.035412
1576.6639,0.035761
1578.5276,0.035400
1580.3912,0.034366
1582.2549,0.033756
1584.1186,0.033404
1585.9822,0.033045
1587.8459,0.032639
1589.7096,0.032473
1591.5733,0.032660
1593.4369,0.032933
1595.3006,0.033002
1597.1643,0.032965
1599.0279,0.033053
1600.8916,0.033656
1602.7553,0.034348
1604.6189,0.034886
1606.4826,0.035671
1608.3463,0.036672
1610.2099,0.037606
1612.0736,0.038377
1613.9373,0.038848
1615.8010,0.040383
1617.6646,0.043052
1619.5283,0.043624
1621.3920,0.043909
1623.2556,0.045850
1625.1193,0.047595
1626.9830,0.048513
1628.8466,0.049863
1630.7103,0.050375
1632.5740,0.049832
1634.4376,0.050116
1636.3013,0.052794
1638.1650,0.053062
1640.0286,0.051891
1641.8923,0.051115
1643.7560,0.050193
1645.6197,0.049815
1647.4833,0.050397
1649.3470,0.048865
1651.2107,0.046265
1653.0743,0.046913
1654.9380,0.047715
1656.8017,0.045503
1658.6653,0.043470
1660.5290,0.041695
1662.3927,0.040123
1664.2563,0.038758
1666.1200,0.036890
1667.9837,0.035039
1669.8474,0.033646
1671.7110,0.032255
1673.5747,0.030189
1675.4384,0.028430
1677.3020,0.026707
1679.1657,0.024512
1681.0294,0.022434
1682.8930,0.020402
1684.7567,0.018879
1686.6204,0.017120
1688.4840,0.014941
1690.3477,0.012998
1692.2114,0.011130
1694.0750,0.008877
1695.9387,0.006496
1697.8024,0.004737
1699.6661,0.002629
1701.5297,0.001522
1703.3934,0.000194
1705.2571,-0.001300
1707.1207,-0.002325
1708.9844,-0.003147
1710.8481,-0.003866
1712.7117,-0.004424
1714.5754,-0.004899
1716.4391,-0.005441
1718.3027,-0.006141
1720.1664,-0.005978
1722.0301,-0.006131
1723.8937,-0.006537
1725.7574,-0.006665
1727.6211,-0.006605
1729.4848,-0.006699
1731.3484,-0.006768
1733.2121,-0.007216
1735.0758,-0.006877
1736.9394,-0.006768
1738.8031,-0.007137
1740.6668,-0.007056
1742.5304,-0.006882
1744.3941,-0.006826
1746.2578,-0.006837
1748.1214,-0.007195
1749.9851,-0.007446
1751.8488,-0.007339
1753.7125,-0.007278
1755.5761,-0.007642
1757.4398,-0.007551
1759.3035,-0.007413
1761.1671,-0.007579
1763.0308,-0.007718
1764.8945,-0.007726
1766.7581,-0.007701
1768.6218,-0.007705
1770.4855,-0.007949
1772.3491,-0.008086
1774.2128,-0.007893
1776.0765,-0.007621
1777.9401,-0.007477
1779.8038,-0.007556
1781.6675,-0.007504
1783.5312,-0.007613
1785.3948,-0.007754
1787.2585,-0.007597
1789.1222,-0.007493
1790.9858,-0.007597
1792.8495,-0.007632
1794.7132,-0.007417
1796.5768,-0.007392
1798.4405,-0.007442
1800.3042,-0.007503
1802.1678,-0.007390
1804.0315,-0.007294
1805.8952,-0.007264
1807.7589,-0.007185
1809.6225,-0.007391
1811.4862,-0.007678
1813.3499,-0.007704
1815.2135,-0.007794
1817.0772,-0.007642
1818.9409,-0.007163
1820.8045,-0.007004
1822.6682,-0.007145
1824.5319,-0.007248
1826.3955,-0.006928
1828.2592,-0.006933
1830.1229,-0.006939
1831.9865,-0.006837
1833.8502,-0.006898
1835.7139,-0.006792
1837.5776,-0.006791
1839.4412,-0.006914
1841.3049,-0.006955
1843.1686,-0.006952
1845.0322,-0.006594
1846.8959,-0.006287
1848.7596,-0.006496
1850.6232,-0.006490
1852.4869,-0.006332
1854.3506,-0.006413
1856.2142,-0.006490
1858.0779,-0.006214
1859.9416,-0.006098
1861.8052,-0.006272
1863.6689,-0.006432
1865.5326,-0.006516
1867.3963,-0.006591
1869.2599,-0.006505
1871.1236,-0.006097
1872.9873,-0.005916
1874.8509,-0.006088
1876.7146,-0.005797
1878.5783,-0.005648
1880.4419,-0.005830
1882.3056,-0.006039
1884.1693,-0.006146
1886.0329,-0.006006
1887.8966,-0.006015
1889.7603,-0.005585
1891.6240,-0.004893
1893.4876,-0.004924
1895.3513,-0.004836
1897.2150,-0.005100
1899.0786,-0.005339
1900.9423,-0.004996
1902.8060,-0.004843
1904.6696,-0.005285
1906.5333,-0.005376
1908.3970,-0.005332
1910.2606,-0.005048
1912.1243,-0.004828
1913.9880,-0.005161
1915.8516,-0.005224
1917.7153,-0.004927
1919.5790,-0.004409
1921.4427,-0.004338
1923.3063,-0.004515
1925.1700,-0.004654
1927.0337,-0.004778
1928.8973,-0.004798
1930.7610,-0.004969
1932.6247,-0.004883
1934.4883,-0.004677
1936.3520,-0.004683
1938.2157,-0.005126
1940.0793,-0.004672
1941.9430,-0.003752
1943.8067,-0.003715
1945.6704,-0.004117
1947.5340,-0.004329
1949.3977,-0.004511
1951.2614,-0.004364
1953.1250,-0.003955
1954.9887,-0.003408
1956.8524,-0.003397
1958.7160,-0.003433
1960.5797,-0.003291
1962.4434,-0.002997
1964.3070,-0.002616
1966.1707,-0.002218
1968.0344,-0.002743
1969.8980,-0.002894
1971.7617,-0.001878
1973.6254,-0.001451
1975.4891,-0.001578
1977.3527,-0.000889
1979.2164,-0.000171
1981.0801,-0.001034
1982.9437,-0.001715
1984.8074,-0.001775
1986.6711,-0.001558
1988.5347,-0.001094
1990.3984,-0.001319
1992.2621,-0.001936
1994.1257,-0.001560
1995.9894,-0.001105
1997.8531,-0.001181
1999.7167,-0.001703
2001.5804,-0.002709
2003.4441,-0.002700
2005.3078,-0.001559
2007.1714,-0.001602
2009.0351,-0.001484
2010.8988,-0.001410
2012.7624,-0.002191
2014.6261,-0.001752
2016.4898,-0.000635
2018.3534,-0.000546
2020.2171,-0.001419
2022.0808,-0.002109
2023.9444,-0.001501
2025.8081,-0.000627
2027.6718,-0.000438
2029.5355,0.000113
2031.3991,0.000849
2033.2628,0.001851
2035.1265,0.001202
2036.9901,-0.000878
2038.8538,-0.001663
2040.7175,-0.001048
2042.5811,-0.000037
2044.4448,0.000200
2046.3085,0.000015
2048.1721,0.000247
2050.0358,0.000770
2051.8995,0.000420
2053.7631,-0.000182
2055.6268,-0.000317
2057.4905,-0.000536
2059.3542,-0.000917
2061.2178,-0.000945
2063.0815,-0.000612
2064.9452,-0.000047
2066.8088,-0.000365
2068.6725,-0.001381
2070.5362,-0.001207
2072.3998,-0.000579
2074.2635,-0.000424
2076.1272,-0.000430
2077.9908,-0.000526
2079.8545,-0.001007
2081.7182,-0.001438
2083.5819,-0.001554
2085.4455,-0.002145
2087.3092,-0.002584
2089.1729,-0.002227
2091.0365,-0.001419
2092.9002,-0.000650
2094.7639,-0.000533
2096.6275,-0.001069
2098.4912,-0.001408
2100.3549,-0.001380
2102.2185,-0.001271
2104.0822,-0.001422
2105.9459,-0.001775
2107.8095,-0.002232
2109.6732,-0.002577
2111.5369,-0.001734
2113.4006,-0.000976
2115.2642,-0.001301
2117.1279,-0.001573
2118.9916,-0.001570
2120.8552,-0.001985
2122.7189,-0.002483
2124.5826,-0.002572
2126.4462,-0.002463
2128.3099,-0.002286
2130.1736,-0.002538
2132.0372,-0.002589
2133.9009,-0.002279
2135.7646,-0.002652
2137.6282,-0.002875
2139.4919,-0.002285
2141.3556,-0.001509
2143.2193,-0.001768
2145.0829,-0.002375
2146.9466,-0.001803
2148.8103,-0.000830
2150.6739,-0.000277
2152.5376,-0.000587
2154.4013,-0.000885
2156.2649,-0.000992
2158.1286,0.000294
2159.9923,0.003582
2161.8559,0.004047
2163.7196,0.002927
2165.5833,0.002924
2167.4470,0.002487
2169.3106,0.001816
2171.1743,0.001030
2173.0380,0.000322
2174.9016,0.001032
2176.7653,0.001726
2178.6290,0.000669
2180.4926,-0.000276
2182.3563,0.000616
2184.2200,0.001809
2186.0836,0.001446
2187.9473,0.000653
2189.8110,0.001064
2191.6746,0.001357
2193.5383,0.000902
2195.4020,0.000711
2197.2657,0.001198
2199.1293,0.001343
2200.9930,0.000752
2202.8567,0.000589
2204.7203,0.000396
2206.5840,0.000023
2208.4477,0.000161
2210.3113,0.000368
2212.1750,0.000222
2214.0387,0.000587
2215.9023,0.001041
2217.7660,0.000273
2219.6297,-0.000167
2221.4934,0.000757
2223.3570,0.001265
2225.2207,0.000999
2227.0844,0.000805
2228.9480,0.000387
2230.8117,-0.000298
2232.6754,-0.001120
2234.5390,-0.001502
2236.4027,-0.000288
2238.2664,0.000940
2240.1300,0.000572
2241.9937,0.000336
2243.8574,0.000474
2245.7210,0.000124
2247.5847,-0.000041
2249.4484,-0.000284
2251.3121,-0.000518
2253.1757,-0.000100
2255.0394,0.000137
2256.9031,-0.000098
2258.7667,-0.000305
2260.6304,-0.000578
2262.4941,-0.000644
2264.3577,-0.000212
2266.2214,0.000152
2268.0851,0.000276
2269.9487,0.000138
2271.8124,-0.000111
2273.6761,-0.000124
2275.5397,-0.000144
2277.4034,-0.000447
2279.2671,-0.000551
2281.1308,-0.000146
2282.9944,-0.000087
2284.8581,-0.000217
2286.7218,-0.000025
2288.5854,-0.000223
2290.4491,-0.000886
2292.3128,-0.001030
2294.1764,-0.000679
2296.0401,-0.000911
2297.9038,-0.001272
2299.7674,-0.001452
2301.6311,-0.001606
2303.4948,-0.001244
2305.3585,-0.000941
2307.2221,-0.001140
2309.0858,-0.001382
2310.9495,-0.001371
2312.8131,-0.001162
2314.6768,-0.001190
2316.5405,-0.001484
2318.4041,-0.001231
2320.2678,-0.000746
2322.1315,-0.001021
2323.9951,-0.001308
2325.8588,-0.001510
2327.7225,-0.002092
2329.5861,-0.002279
2331.4498,-0.002245
2333.3135,-0.002212
2335.1772,-0.002391
2337.0408,-0.002592
2338.9045,-0.002464
2340.7682,-0.002374
2342.6318,-0.002287
2344.4955,-0.002101
2346.3592,-0.002274
2348.2228,-0.002925
2350.0865,-0.003236
2351.9502,-0.003148
2353.8138,-0.003361
2355.6775,-0.003154
2357.5412,-0.002334
2359.4049,-0.002126
2361.2685,-0.002115
2363.1322,-0.002038
2364.9959,-0.002399
2366.8595,-0.002726
2368.7232,-0.002743
2370.5869,-0.002147
2372.4505,-0.001581
2374.3142,-0.001896
2376.1779,-0.002090
2378.0415,-0.002156
2379.9052,-0.002665
2381.7689,-0.002952
2383.6325,-0.002820
2385.4962,-0.002779
2387.3599,-0.002785
2389.2236,-0.002625
2391.0872,-0.002492
2392.9509,-0.002582
2394.8146,-0.002674
2396.6782,-0.002780
2398.5419,-0.002787
2400.4056,-0.002445
2402.2692,-0.002529
2404.1329,-0.002859
2405.9966,-0.002603
2407.8602,-0.002130
2409.7239,-0.002002
2411.5876,-0.001976
2413.4512,-0.001939
2415.3149,-0.002013
2417.1786,-0.001950
2419.0423,-0.002083
2420.9059,-0.002475
2422.7696,-0.002358
2424.6333,-0.001914
2426.4969,-0.001889
2428.3606,-0.002168
2430.2243,-0.002011
2432.0879,-0.001711
2433.9516,-0.001698
2435.8153,-0.001782
2437.6789,-0.001873
2439.5426,-0.001696
2441.4063,-0.001736
2443.2700,-0.002041
2445.1336,-0.002009
2446.9973,-0.001808
2448.8610,-0.001739
2450.7246,-0.001640
2452.5883,-0.001546
2454.4520,-0.001554
2456.3156,-0.001652
2458.1793,-0.001633
2460.0430,-0.001652
2461.9066,-0.001816
2463.7703,-0.001856
2465.6340,-0.001791
2467.4976,-0.001695
2469.3613,-0.001707
2471.2250,-0.001512
2473.0887,-0.001401
2474.9523,-0.001621
2476.8160,-0.001626
2478.6797,-0.001582
2480.5433,-0.001699
2482.4070,-0.001435
2484.2707,-0.001312
2486.1343,-0.001361
2487.9980,-0.001473
2489.8617,-0.001781
2491.7253,-0.001591
2493.5890,-0.001575
2495.4527,-0.001631
2497.3164,-0.001236
2499.1800,-0.001050
2501.0437,-0.001221
2502.9074,-0.001319
2504.7710,-0.001131
2506.6347,-0.001055
2508.4984,-0.001222
2510.3620,-0.001313
2512.2257,-0.001473
2514.0894,-0.001522
2515.9530,-0.001378
2517.8167,-0.001336
2519.6804,-0.001368
2521.5440,-0.001454
2523.4077,-0.001465
2525.2714,-0.001194
2527.1351,-0.001100
2528.9987,-0.001202
2530.8624,-0.001214
2532.7261,-0.001098
2534.5897,-0.001160
2536.4534,-0.001300
2538.3171,-0.000948
2540.1807,-0.000677
2542.0444,-0.000842
2543.9081,-0.001107
2545.7717,-0.001045
2547.6354,-0.000976
2549.4991,-0.001237
2551.3627,-0.001462
2553.2264,-0.001352
2555.0901,-0.001156
2556.9538,-0.001059
2558.8174,-0.000934
2560.6811,-0.000943
2562.5448,-0.001173
2564.4084,-0.000882
2566.2721,-0.000565
2568.1358,-0.000635
2569.9994,-0.000782
2571.8631,-0.000865
2573.7268,-0.000721
2575.5904,-0.000562
2577.4541,-0.000661
2579.3178,-0.000563
2581.1815,-0.000417
2583.0451,-0.000527
2584.9088,-0.000511
2586.7725,-0.000426
2588.6361,-0.000428
2590.4998,-0.000403
2592.3635,-0.000386
2594.2271,-0.000311
2596.0908,-0.000179
2597.9545,-0.000164
2599.8181,-0.000109
2601.6818,-0.000147
2603.5455,-0.000377
2605.4091,-0.000417
2607.2728,-0.000150
2609.1365,-0.000118
2611.0002,-0.000011
2612.8638,-0.000099
2614.7275,-0.000016
2616.5912,0.000201
2618.4548,0.000130
2620.3185,0.000023
2622.1822,0.000086
2624.0458,0.000139
2625.9095,0.000096
2627.7732,0.000092
2629.6368,0.000234
2631.5005,0.000267
2633.3642,0.000099
2635.2279,0.000099
2637.0915,0.000419
2638.9552,0.000469
2640.8189,0.000183
2642.6825,0.000236
2644.5462,0.000450
2646.4099,0.000447
2648.2735,0.000416
2650.1372,0.000411
2652.0009,0.000406
2653.8645,0.000406
2655.7282,0.000355
2657.5919,0.000361
2659.4555,0.000319
2661.3192,0.000156
2663.1829,0.000037
2665.0466,-0.000034
2666.9102,-0.000138
2668.7739,-0.000088
2670.6376,0.000039
2672.5012,0.000055
2674.3649,0.000036
2676.2286,0.000189
2678.0922,0.000119
2679.9559,-0.000066
2681.8196,0.000067
2683.6832,0.000144
2685.5469,0.000221
2687.4106,0.000343
2689.2742,0.000413
2691.1379,0.000497
2693.0016,0.000524
2694.8653,0.000554
2696.7289,0.000573
2698.5926,0.000492
2700.4563,0.000710
2702.3199,0.000857
2704.1836,0.000755
2706.0473,0.000851
2707.9109,0.000969
2709.7746,0.000934
2711.6383,0.000973
2713.5019,0.000939
2715.3656,0.000871
2717.2293,0.000845
2719.0930,0.001115
2720.9566,0.001390
2722.8203,0.001525
2724.6840,0.001485
2726.5476,0.001293
2728.4113,0.001215
2730.2750,0.001333
2732.1386,0.001477
2734.0023,0.001638
2735.8660,0.001726
2737.7296,0.001943
2739.5933,0.001905
2741.4570,0.001621
2743.3206,0.001714
2745.1843,0.002052
2747.0480,0.002175
2748.9117,0.002094
2750.7753,0.001944
2752.6390,0.002010
2754.5027,0.002161
2756.3663,0.002218
2758.2300,0.002297
2760.0937,0.002514
2761.9573,0.002728
2763.8210,0.002683
2765.6847,0.002519
2767.5483,0.002577
2769.4120,0.002686
2771.2757,0.002858
2773.1394,0.003008
2775.0030,0.003119
2776.8667,0.003148
2778.7304,0.003167
2780.5940,0.003312
2782.4577,0.003463
2784.3214,0.003535
2786.1850,0.003640
2788.0487,0.003575
2789.9124,0.003511
2791.7760,0.003595
2793.6397,0.003889
2795.5034,0.003997
2797.3670,0.003973
2799.2307,0.004117
2801.0944,0.004310
2802.9581,0.004472
2804.8217,0.004599
2806.6854,0.004421
2808.5491,0.004419
2810.4127,0.004695
2812.2764,0.004721
2814.1401,0.004771
2816.0037,0.005015
2817.8674,0.005227
2819.7311,0.005111
2821.5947,0.005148
2823.4584,0.005341
2825.3221,0.005392
2827.1857,0.005490
2829.0494,0.005811
2830.9131,0.006052
2832.7768,0.006161
2834.6404,0.006321
2836.5041,0.006666
2838.3678,0.006626
2840.2314,0.006647
2842.0951,0.006955
2843.9588,0.007091
2845.8224,0.007415
2847.6861,0.007805
2849.5498,0.008029
2851.4134,0.008050
2853.2771,0.008029
2855.1408,0.008183
2857.0045,0.008155
2858.8681,0.008380
2860.7318,0.008704
2862.5955,0.008775
2864.4591,0.008707
2866.3228,0.009011
2868.1865,0.009286
2870.0501,0.009455
2871.9138,0.009640
2873.7775,0.009637
2875.6411,0.009520
2877.5048,0.009636
2879.3685,0.009818
2881.2321,0.009925
2883.0958,0.009818
2884.9595,0.009700
2886.8232,0.009609
2888.6868,0.009760
2890.5505,0.009887
2892.4142,0.009830
2894.2778,0.009938
2896.1415,0.010240
2898.0052,0.010282
2899.8688,0.010346
2901.7325,0.010411
2903.5962,0.010657
2905.4598,0.010836
2907.3235,0.011048
2909.1872,0.011263
2911.0509,0.011511
2912.9145,0.011675
2914.7782,0.011689
2916.6419,0.011959
2918.5055,0.012356
2920.3692,0.012427
2922.2329,0.012542
2924.0965,0.012303
2925.9602,0.012274
2927.8239,0.012772
2929.6875,0.012997
2931.5512,0.012913
2933.4149,0.012762
2935.2785,0.012638
2937.1422,0.012429
2939.0059,0.012277
2940.8696,0.012276
2942.7332,0.012175
2944.5969,0.012039
2946.4606,0.012053
2948.3242,0.011890
2950.1879,0.011844
2952.0516,0.011955
2953.9152,0.011942
2955.7789,0.012006
2957.6426,0.012108
2959.5062,0.012015
2961.3699,0.012095
2963.2336,0.012147
2965.0972,0.012062
2966.9609,0.011828
2968.8246,0.011593
2970.6883,0.011576
2972.5519,0.011467
2974.4156,0.011493
2976.2793,0.011224
2978.1429,0.010796
2980.0066,0.010478
2981.8703,0.010414
2983.7339,0.010386
2985.5976,0.010327
2987.4613,0.010405
2989.3249,0.010298
2991.1886,0.010240
2993.0523,0.010219
2994.9160,0.010262
2996.7796,0.010098
2998.6433,0.009725
3000.5070,0.009773
3002.3706,0.010088
3004.2343,0.010284
3006.0980,0.010277
3007.9616,0.010378
3009.8253,0.010424
3011.6890,0.010409
3013.5526,0.010461
3015.4163,0.010698
3017.2800,0.010941
3019.1436,0.011089
3021.0073,0.011356
3022.8710,0.011261
3024.7347,0.011181
3026.5983,0.011692
3028.4620,0.012027
3030.3257,0.011656
3032.1893,0.011654
3034.0530,0.012064
3035.9167,0.012268
3037.7803,0.012505
3039.6440,0.012729
3041.5077,0.012841
3043.3713,0.012991
3045.2350,0.013269
3047.0987,0.013280
3048.9624,0.013301
3050.8260,0.013409
3052.6897,0.013289
3054.5534,0.013454
3056.4170,0.013783
3058.2807,0.013943
3060.1444,0.013988
3062.0080,0.013981
3063.8717,0.014010
3065.7354,0.014206
3067.5990,0.014260
3069.4627,0.014031
3071.3264,0.014311
3073.1900,0.014515
3075.0537,0.014698
3076.9174,0.014854
3078.7811,0.014778
3080.6447,0.014901
3082.5084,0.014989
3084.3721,0.014956
3086.2357,0.014952
3088.0994,0.014765
3089.9631,0.014772
3091.8267,0.014435
3093.6904,0.014145
3095.5541,0.014619
3097.4177,0.015107
3099.2814,0.014902
3101.1451,0.014523
3103.0087,0.014406
3104.8724,0.014601
3106.7361,0.015091
3108.5998,0.015451
3110.4634,0.015415
3112.3271,0.015196
3114.1908,0.015247
3116.0544,0.015409
3117.9181,0.015608
3119.7818,0.015582
3121.6454,0.015283
3123.5091,0.015409
3125.3728,0.016074
3127.2364,0.016481
3129.1001,0.016026
3130.9638,0.016320
3132.8275,0.016581
3134.6911,0.016429
3136.5548,0.016682
3138.4185,0.017081
3140.2821,0.016815
3142.1458,0.016618
3144.0095,0.016772
3145.8731,0.017208
3147.7368,0.017476
3149.6005,0.017838
3151.4641,0.018162
3153.3278,0.018178
3155.1915,0.018459
3157.0551,0.018632
3158.9188,0.018522
3160.7825,0.018778
3162.6462,0.019119
3164.5098,0.019233
3166.3735,0.019112
3168.2372,0.019111
3170.1008,0.019465
3171.9645,0.019900
3173.8282,0.020047
3175.6918,0.020328
3177.5555,0.020554
3179.4192,0.020496
3181.2828,0.020584
3183.1465,0.020643
3185.0102,0.020606
3186.8739,0.020982
3188.7375,0.021228
3190.6012,0.021489
3192.4649,0.021939
3194.3285,0.021885
3196.1922,0.021836
3198.0559,0.022017
3199.9195,0.021909
3201.7832,0.021988
3203.6469,0.022022
3205.5105,0.021881
3207.3742,0.021707
3209.2379,0.022039
3211.1015,0.022322
3212.9652,0.022454
3214.8289,0.022724
3216.6926,0.022797
3218.5562,0.022716
3220.4199,0.022735
3222.2836,0.022722
3224.1472,0.022687
3226.0109,0.022486
3227.8746,0.022857
3229.7382,0.023073
3231.6019,0.022925
3233.4656,0.023065
3235.3292,0.023031
3237.1929,0.022987
3239.0566,0.023582
3240.9202,0.023910
3242.7839,0.023712
3244.6476,0.023656
3246.5113,0.023992
3248.3749,0.023954
3250.2386,0.023965
3252.1023,0.024180
3253.9659,0.024417
3255.8296,0.024305
3257.6933,0.024252
3259.5569,0.024210
3261.4206,0.024189
3263.2843,0.024216
3265.1479,0.024426
3267.0116,0.024742
3268.8753,0.024850
3270.7390,0.024668
3272.6026,0.024762
3274.4663,0.024712
3276.3300,0.024651
3278.1936,0.024566
3280.0573,0.024511
3281.9210,0.024521
3283.7846,0.024242
3285.6483,0.024078
3287.5120,0.024334
3289.3756,0.024272
3291.2393,0.024072
3293.1030,0.024435
3294.9666,0.024526
3296.8303,0.023945
3298.6940,0.023573
3300.5577,0.023517
3302.4213,0.023467
3304.2850,0.023334
3306.1487,0.023002
3308.0123,0.022642
3309.8760,0.022573
3311.7397,0.022505
3313.6033,0.022767
3315.4670,0.022260
3317.3307,0.021735
3319.1943,0.021769
3321.0580,0.021891
3322.9217,0.021814
3324.7854,0.021563
3326.6490,0.021359
3328.5127,0.021290
3330.3764,0.021185
3332.2400,0.021391
3334.1037,0.021514
3335.9674,0.021142
3337.8310,0.020560
3339.6947,0.020522
3341.5584,0.020800
3343.4220,0.020446
3345.2857,0.020184
3347.1494,0.020604
3349.0130,0.020455
3350.8767,0.019954
3352.7404,0.019970
3354.6041,0.019927
3356.4677,0.019332
3358.3314,0.019050
3360.1951,0.019131
3362.0587,0.019151
3363.9224,0.019097
3365.7861,0.018819
3367.6497,0.018537
3369.5134,0.018301
3371.3771,0.018475
3373.2407,0.018608
3375.1044,0.018430
3376.9681,0.018133
3378.8317,0.017764
3380.6954,0.017511
3382.5591,0.017689
3384.4228,0.017922
3386.2864,0.017973
3388.1501,0.017840
3390.0138,0.017103
3391.8774,0.016742
3393.7411,0.016749
3395.6048,0.016542
3397.4684,0.016574
3399.3321,0.016642
3401.1958,0.016423
3403.0594,0.016233
3404.9231,0.016180
3406.7868,0.016195
3408.6505,0.015725
3410.5141,0.015137
3412.3778,0.015207
3414.2415,0.015455
3416.1051,0.015206
3417.9688,0.015363
3419.8325,0.015156
3421.6961,0.014790
3423.5598,0.015123
3425.4235,0.014685
3427.2871,0.013768
3429.1508,0.013343
3431.0145,0.013420
3432.8781,0.013481
3434.7418,0.013436
3436.6055,0.013413
3438.4692,0.013016
3440.3328,0.012990
3442.1965,0.012995
3444.0602,0.012650
3445.9238,0.012465
3447.7875,0.011993
3449.6512,0.011518
3451.5148,0.011689
3453.3785,0.011490
3455.2422,0.010827
3457.1058,0.010768
3458.9695,0.010755
3460.8332,0.010608
3462.6969,0.010230
3464.5605,0.010152
3466.4242,0.010621
3468.2879,0.010278
3470.1515,0.009409
3472.0152,0.009262
3473.8789,0.009420
3475.7425,0.009543
3477.6062,0.009295
3479.4699,0.008966
3481.3335,0.008854
3483.1972,0.008544
3485.0609,0.008580
3486.9245,0.008672
3488.7882,0.008400
3490.6519,0.007377
3492.5156,0.006661
3494.3792,0.007147
3496.2429,0.007181
3498.1066,0.006659
3499.9702,0.006694
3501.8339,0.006436
3503.6976,0.005661
3505.5612,0.004991
3507.4249,0.004866
3509.2886,0.004884
3511.1522,0.005146
3513.0159,0.005829
3514.8796,0.005458
3516.7432,0.004294
3518.6069,0.003742
3520.4706,0.003655
3522.3343,0.003739
3524.1979,0.003511
3526.0616,0.003024
3527.9253,0.002931
3529.7889,0.003235
3531.6526,0.002938
3533.5163,0.002056
3535.3799,0.001684
3537.2436,0.001758
3539.1073,0.001832
3540.9709,0.001919
3542.8346,0.001850
3544.6983,0.001633
3546.5620,0.001512
3548.4256,0.001128
3550.2893,0.000583
3552.1530,0.000318
3554.0166,0.000783
3555.8803,0.000709
3557.7440,-0.000288
3559.6076,-0.000770
3561.4713,-0.000948
3563.3350,-0.000804
3565.1986,-0.000646
3567.0623,-0.001190
3568.9260,-0.001445
3570.7896,-0.001597
3572.6533,-0.002453
3574.5170,-0.003006
3576.3807,-0.002599
3578.2443,-0.002124
3580.1080,-0.002094
3581.9717,-0.002513
3583.8353,-0.002855
3585.6990,-0.003035
3587.5627,-0.003487
3589.4263,-0.003396
3591.2900,-0.003287
3593.1537,-0.003761
3595.0173,-0.003776
3596.8810,-0.003852
3598.7447,-0.004240
3600.6084,-0.004219
3602.4720,-0.004428
3604.3357,-0.005001
3606.1994,-0.005345
3608.0630,-0.004940
3609.9267,-0.004185
3611.7904,-0.004265
3613.6540,-0.004690
3615.5177,-0.004922
3617.3814,-0.005602
3619.2450,-0.006341
3621.1087,-0.005886
3622.9724,-0.005494
3624.8360,-0.005933
3626.6997,-0.006482
3628.5634,-0.006834
3630.4271,-0.006007
3632.2907,-0.005318
3634.1544,-0.005786
3636.0181,-0.006090
3637.8817,-0.006303
3639.7454,-0.006923
3641.6091,-0.007233
3643.4727,-0.007101
3645.3364,-0.007271
3647.2001,-0.007737
3649.0637,-0.007607
3650.9274,-0.006923
3652.7911,-0.006749
3654.6547,-0.007093
3656.5184,-0.007620
3658.3821,-0.007896
3660.2458,-0.007727
3662.1094,-0.007664
3663.9731,-0.007765
3665.8368,-0.007968
3667.7004,-0.008445
3669.5641,-0.008544
3671.4278,-0.007865
3673.2914,-0.007930
3675.1551,-0.009177
3677.0188,-0.009219
3678.8824,-0.008011
3680.7461,-0.007701
3682.6098,-0.007961
3684.4735,-0.008309
3686.3371,-0.008629
3688.2008,-0.009111
3690.0645,-0.009138
3691.9281,-0.008448
3693.7918,-0.007979
3695.6555,-0.008120
3697.5191,-0.008437
3699.3828,-0.008525
3701.2465,-0.008529
3703.1101,-0.008354
3704.9738,-0.008463
3706.8375,-0.008889
3708.7011,-0.008981
3710.5648,-0.008370
3712.4285,-0.007735
3714.2922,-0.007896
3716.1558,-0.008475
3718.0195,-0.008769
3719.8832,-0.008444
3721.7468,-0.008426
3723.6105,-0.008652
3725.4742,-0.008403
3727.3378,-0.008290
3729.2015,-0.008654
3731.0652,-0.009177
3732.9288,-0.009345
3734.7925,-0.009344
3736.6562,-0.008828
3738.5199,-0.007968
3740.3835,-0.008412
3742.2472,-0.009149
3744.1109,-0.009098
3745.9745,-0.008873
3747.8382,-0.008864
3749.7019,-0.008809
3751.5655,-0.008425
3753.4292,-0.007911
3755.2929,-0.007803
3757.1565,-0.008300
3759.0202,-0.008493
3760.8839,-0.008356
3762.7475,-0.008422
3764.6112,-0.008346
3766.4749,-0.008253
3768.3386,-0.008266
3770.2022,-0.008336
3772.0659,-0.008049
3773.9296,-0.008121
3775.7932,-0.008671
3777.6569,-0.008845
3779.5206,-0.008792
3781.3842,-0.008647
3783.2479,-0.008424
3785.1116,-0.008187
3786.9752,-0.008218
3788.8389,-0.008513
3790.7026,-0.008382
3792.5662,-0.008102
3794.4299,-0.008442
3796.2936,-0.009091
3798.1573,-0.009141
3800.0209,-0.008950
3801.8846,-0.008755
3803.7483,-0.008136
3805.6119,-0.008133
3807.4756,-0.008529
3809.3393,-0.008308
3811.2029,-0.008124
3813.0666,-0.008287
3814.9303,-0.008539
3816.7939,-0.008738
3818.6576,-0.008640
3820.5213,-0.008494
3822.3850,-0.008498
3824.2486,-0.008543
3826.1123,-0.008701
3827.9760,-0.008648
3829.8396,-0.008430
3831.7033,-0.008432
3833.5670,-0.008567
3835.4306,-0.008774
3837.2943,-0.009032
3839.1580,-0.008983
3841.0216,-0.008503
3842.8853,-0.008493
3844.7490,-0.008577
3846.6126,-0.008415
3848.4763,-0.008761
3850.3400,-0.008959
3852.2037,-0.008689
3854.0673,-0.008354
3855.9310,-0.008184
3857.7947,-0.008164
3859.6583,-0.008113
3861.5220,-0.008451
3863.3857,-0.009224
3865.2493,-0.009189
3867.1130,-0.008393
3868.9767,-0.008453
3870.8403,-0.008852
3872.7040,-0.008181
3874.5677,-0.008007
3876.4314,-0.008231
3878.2950,-0.008678
3880.1587,-0.009014
3882.0224,-0.008185
3883.8860,-0.007744
3885.7497,-0.008436
3887.6134,-0.008612
3889.4770,-0.008260
3891.3407,-0.008393
3893.2044,-0.008420
3895.0680,-0.008067
3896.9317,-0.008394
3898.7954,-0.008603
3900.6590,-0.008374
3902.5227,-0.008588
3904.3864,-0.008572
3906.2501,-0.007885
3908.1137,-0.008083
3909.9774,-0.008562
3911.8411,-0.008403
3913.7047,-0.008027
3915.5684,-0.007846
3917.4321,-0.008115
3919.2957,-0.008381
3921.1594,-0.008297
3923.0231,-0.007965
3924.8867,-0.007631
3926.7504,-0.007731
3928.6141,-0.008055
3930.4777,-0.008371
3932.3414,-0.008422
3934.2051,-0.008227
3936.0688,-0.008040
3937.9324,-0.008195
3939.7961,-0.008348
3941.6598,-0.008232
3943.5234,-0.008320
3945.3871,-0.008473
3947.2508,-0.008339
3949.1144,-0.008158
3950.9781,-0.007828
3952.8418,-0.007783
3954.7054,-0.008244
3956.5691,-0.008490
3958.4328,-0.008504
3960.2965,-0.008204
3962.1601,-0.008045
3964.0238,-0.007931
3965.8875,-0.007888
3967.7511,-0.008241
3969.6148,-0.008292
3971.4785,-0.008394
3973.3421,-0.008388
3975.2058,-0.008237
3977.0695,-0.008140
3978.9331,-0.007887
3980.7968,-0.007818
3982.6605,-0.008093
3984.5241,-0.008173
3986.3878,-0.008014
3988.2515,-0.007895
3990.1152,-0.007960
3991.9788,-0.008106
3993.8425,-0.008279
3995.7062,-0.007943
3997.5698,-0.007817
3999.4335,-0.008106
