Wavenumber,Intensity
650.4205,0.158487
652.2841,0.158397
654.1478,0.161379
656.0115,0.163594
657.8751,0.160148
659.7388,0.157382
661.6025,0.157701
663.4661,0.155175
665.3298,0.150374
667.1935,0.148024
669.0571,0.150823
670.9208,0.152840
672.7845,0.152558
674.6481,0.151981
676.5118,0.151344
678.3755,0.150068
680.2392,0.148329
682.1028,0.146333
683.9665,0.145236
685.8302,0.145456
687.6938,0.145331
689.5575,0.144463
691.4212,0.143250
693.2848,0.141784
695.1485,0.141211
697.0122,0.142491
698.8758,0.142553
700.7395,0.141108
702.6032,0.139209
704.4669,0.137236
706.3305,0.135239
708.1942,0.133461
710.0579,0.131624
711.9215,0.129795
713.7852,0.128462
715.6489,0.128105
717.5125,0.127481
719.3762,0.126443
721.2399,0.125183
723.1035,0.123729
724.9672,0.122018
726.8309,0.120607
728.6945,0.118956
730.5582,0.117641
732.4219,0.117317
734.2856,0.117008
736.1492,0.116135
738.0129,0.115567
739.8766,0.115050
741.7402,0.114812
743.6039,0.114566
745.4676,0.113956
747.3312,0.112973
749.1949,0.111577
751.0586,0.109997
752.9222,0.108767
754.7859,0.108057
756.6496,0.107539
758.5132,0.106464
760.3769,0.105674
762.2406,0.105342
764.1043,0.104767
765.9679,0.103863
767.8316,0.103075
769.6953,0.102382
771.5589,0.101359
773.4226,0.100058
775.2863,0.099528
777.1499,0.099033
779.0136,0.098441
780.8773,0.097819
782.7409,0.097196
784.6046,0.096143
786.4683,0.095108
788.3320,0.094428
790.1956,0.093621
792.0593,0.092611
793.9230,0.092158
795.7866,0.091868
797.6503,0.091144
799.5140,0.090164
801.3776,0.089535
803.2413,0.089377
805.1050,0.089187
806.9686,0.088778
808.8323,0.088303
810.6960,0.087841
812.5596,0.087405
814.4233,0.086625
816.2870,0.085848
818.1507,0.085159
820.0143,0.084810
821.8780,0.084681
823.7417,0.084050
825.6053,0.082839
827.4690,0.081935
829.3327,0.081224
831.1963,0.080150
833.0600,0.079090
834.9237,0.078311
836.7873,0.077417
838.6510,0.076379
840.5147,0.075120
842.3784,0.073982
844.2420,0.073382
846.1057,0.072953
847.9694,0.072503
849.8330,0.072173
851.6967,0.071455
853.5604,0.070920
855.4240,0.070630
857.2877,0.070312
859.1514,0.070067
861.0150,0.069994
862.8787,0.069894
864.7424,0.069781
866.6060,0.070065
868.4697,0.070909
870.3334,0.071573
872.1971,0.071521
874.0607,0.070903
875.9244,0.070333
877.7881,0.069951
879.6517,0.069644
881.5154,0.069320
883.3791,0.068940
885.2427,0.068776
887.1064,0.068864
888.9701,0.068800
890.8337,0.068792
892.6974,0.068843
894.5611,0.068883
896.4247,0.068739
898.2884,0.068404
900.1521,0.068064
902.0158,0.067877
903.8794,0.067580
905.7431,0.067296
907.6068,0.067236
909.4704,0.067646
911.3341,0.068184
913.1978,0.068657
915.0614,0.069212
916.9251,0.069646
918.7888,0.070064
920.6524,0.070504
922.5161,0.070858
924.3798,0.071130
926.2435,0.071275
928.1071,0.071449
929.9708,0.071593
931.8345,0.071747
933.6981,0.071803
935.5618,0.072029
937.4255,0.072407
939.2891,0.072840
941.1528,0.073348
943.0165,0.074035
944.8801,0.074630
946.7438,0.075239
948.6075,0.075935
950.4711,0.076646
952.3348,0.077399
954.1985,0.078285
956.0622,0.079449
957.9258,0.080977
959.7895,0.082745
961.6532,0.084603
963.5168,0.086416
965.3805,0.088134
967.2442,0.089370
969.1078,0.089893
970.9715,0.089972
972.8352,0.089920
974.6988,0.090010
976.5625,0.090366
978.4262,0.090948
980.2899,0.091801
982.1535,0.093015
984.0172,0.094544
985.8809,0.096173
987.7445,0.097871
989.6082,0.099638
991.4719,0.101584
993.3355,0.103648
995.1992,0.105721
997.0629,0.107694
998.9265,0.109702
1000.7902,0.111761
1002.6539,0.113835
1004.5175,0.116010
1006.3812,0.118433
1008.2449,0.121155
1010.1086,0.124161
1011.9722,0.127353
1013.8359,0.130540
1015.6996,0.133735
1017.5632,0.136846
1019.4269,0.139654
1021.2906,0.142020
1023.1542,0.143941
1025.0179,0.145591
1026.8816,0.147255
1028.7452,0.148965
1030.6089,0.150485
1032.4726,0.151746
1034.3362,0.152735
1036.1999,0.153468
1038.0636,0.153970
1039.9273,0.154446
1041.7909,0.154920
1043.6546,0.155338
1045.5183,0.155621
1047.3819,0.155925
1049.2456,0.156361
1051.1093,0.156803
1052.9729,0.157104
1054.8366,0.157327
1056.7003,0.157740
1058.5639,0.158033
1060.4276,0.158193
1062.2913,0.158433
1064.1550,0.158625
1066.0186,0.158911
1067.8823,0.159074
1069.7460,0.158869
1071.6096,0.158412
1073.4733,0.157644
1075.3370,0.156521
1077.2006,0.155022
1079.0643,0.152918
1080.9280,0.150223
1082.7916,0.147198
1084.6553,0.144042
1086.5190,0.140960
1088.3826,0.138087
1090.2463,0.135401
1092.1100,0.133005
1093.9737,0.130830
1095.8373,0.128935
1097.7010,0.127321
1099.5647,0.125906
1101.4283,0.124667
1103.2920,0.123621
1105.1557,0.122680
1107.0193,0.121924
1108.8830,0.121350
1110.7467,0.120802
1112.6103,0.120188
1114.4740,0.119502
1116.3377,0.118591
1118.2014,0.117408
1120.0650,0.116119
1121.9287,0.114879
1123.7924,0.113692
1125.6560,0.112431
1127.5197,0.111101
1129.3834,0.109776
1131.2470,0.108358
1133.1107,0.106814
1134.9744,0.105390
1136.8380,0.104173
1138.7017,0.103080
1140.5654,0.102301
1142.4290,0.101952
1144.2927,0.101933
1146.1564,0.102145
1148.0201,0.102413
1149.8837,0.102675
1151.7474,0.102951
1153.6111,0.103132
1155.4747,0.103124
1157.3384,0.103025
1159.2021,0.102763
1161.0657,0.102408
1162.9294,0.101975
1164.7931,0.101399
1166.6567,0.100538
1168.5204,0.099366
1170.3841,0.097927
1172.2477,0.096073
1174.1114,0.093926
1175.9751,0.091577
1177.8388,0.089516
1179.7024,0.088026
1181.5661,0.086987
1183.4298,0.086613
1185.2934,0.086755
1187.1571,0.087108
1189.0208,0.087662
1190.8844,0.088418
1192.7481,0.089384
1194.6118,0.090574
1196.4754,0.091862
1198.3391,0.093258
1200.2028,0.094772
1202.0665,0.096345
1203.9301,0.097932
1205.7938,0.099330
1207.6575,0.100581
1209.5211,0.101895
1211.3848,0.103208
1213.2485,0.104479
1215.1121,0.105902
1216.9758,0.107509
1218.8395,0.109101
1220.7031,0.110560
1222.5668,0.112030
1224.4305,0.113535
1226.2941,0.114808
1228.1578,0.115635
1230.0215,0.116355
1231.8852,0.116832
1233.7488,0.116918
1235.6125,0.116709
1237.4762,0.116238
1239.3398,0.115690
1241.2035,0.114834
1243.0672,0.113689
1244.9308,0.112523
1246.7945,0.111221
1248.6582,0.109775
1250.5218,0.108372
1252.3855,0.107027
1254.2492,0.105808
1256.1129,0.104803
1257.9765,0.103789
1259.8402,0.102818
1261.7039,0.102012
1263.5675,0.101199
1265.4312,0.100537
1267.2949,0.099940
1269.1585,0.099448
1271.0222,0.099219
1272.8859,0.098920
1274.7495,0.098545
1276.6132,0.098376
1278.4769,0.098256
1280.3405,0.098178
1282.2042,0.098180
1284.0679,0.097963
1285.9316,0.097823
1287.7952,0.097904
1289.6589,0.097837
1291.5226,0.097700
1293.3862,0.097747
1295.2499,0.098030
1297.1136,0.098286
1298.9772,0.098508
1300.8409,0.098670
1302.7046,0.098713
1304.5682,0.098713
1306.4319,0.098788
1308.2956,0.098703
1310.1592,0.098434
1312.0229,0.098211
1313.8866,0.097721
1315.7503,0.096795
1317.6139,0.096056
1319.4776,0.095369
1321.3413,0.094332
1323.2049,0.093353
1325.0686,0.092548
1326.9323,0.091967
1328.7959,0.091695
1330.6596,0.091603
1332.5233,0.091448
1334.3869,0.091219
1336.2506,0.091460
1338.1143,0.092650
1339.9780,0.093614
1341.8416,0.093248
1343.7053,0.092687
1345.5690,0.092469
1347.4326,0.092543
1349.2963,0.092788
1351.1600,0.093086
1353.0236,0.093586
1354.8873,0.094360
1356.7510,0.094952
1358.6146,0.095724
1360.4783,0.097884
1362.3420,0.101616
1364.2056,0.104002
1366.0693,0.104678
1367.9330,0.105590
1369.7967,0.106095
1371.6603,0.106943
1373.5240,0.109919
1375.3877,0.112608
1377.2513,0.113685
1379.1150,0.114835
1380.9787,0.115396
1382.8423,0.115643
1384.7060,0.116152
1386.5697,0.117854
1388.4333,0.118272
1390.2970,0.116520
1392.1607,0.115465
1394.0244,0.116052
1395.8880,0.116007
1397.7517,0.115258
1399.6154,0.114676
1401.4790,0.112494
1403.3427,0.111304
1405.2064,0.110769
1407.0700,0.109014
1408.9337,0.107364
1410.7974,0.106320
1412.6610,0.104911
1414.5247,0.103250
1416.3884,0.102582
1418.2520,0.104585
1420.1157,0.104920
1421.9794,0.102822
1423.8431,0.102852
1425.7067,0.102666
1427.5704,0.103039
1429.4341,0.105404
1431.2977,0.106663
1433.1614,0.106774
1435.0251,0.109882
1436.8887,0.115713
1438.7524,0.115900
1440.6161,0.115067
1442.4797,0.115382
1444.3434,0.115470
1446.2071,0.116451
1448.0707,0.117948
1449.9344,0.117203
1451.7981,0.115184
1453.6618,0.113206
1455.5254,0.114793
1457.3891,0.118780
1459.2528,0.114870
1461.1164,0.110116
1462.9801,0.108786
1464.8438,0.109837
1466.7074,0.107498
1468.5711,0.103213
1470.4348,0.100438
1472.2984,0.100645
1474.1621,0.099461
1476.0258,0.097868
1477.8895,0.096539
1479.7531,0.096490
1481.6168,0.097969
1483.4805,0.098941
1485.3441,0.100776
1487.2078,0.105628
1489.0715,0.113140
1490.9351,0.118655
1492.7988,0.119380
1494.6625,0.122732
1496.5261,0.131240
1498.3898,0.137597
1500.2535,0.139594
1502.1171,0.139459
1503.9808,0.141188
1505.8445,0.153068
1507.7082,0.166041
1509.5718,0.165342
1511.4355,0.165660
1513.2992,0.166766
1515.1628,0.168211
1517.0265,0.169921
1518.8902,0.169490
1520.7538,0.172157
1522.6175,0.174608
1524.4812,0.174308
1526.3448,0.175917
1528.2085,0.176131
1530.0722,0.174991
1531.9359,0.175397
1533.7995,0.176689
1535.6632,0.173320
1537.5269,0.171394
1539.3905,0.173473
1541.2542,0.174068
1543.1179,0.170677
1544.9815,0.166824
1546.8452,0.161709
1548.7089,0.157258
1550.5725,0.151985
1552.4362,0.146641
1554.2999,0.140969
1556.1635,0.135811
1558.0272,0.135808
1559.8909,0.133310
1561.7546,0.125937
1563.6182,0.121614
1565.4819,0.117990
1567.3456,0.115197
1569.2092,0.113845
1571.0729,0.110817
1572.9366,0.107605
1574.8002,0.107655
1576.6639,0.108159
1578.5276,0.105534
1580.3912,0.103805
1582.2549,0.103220
1584.1186,0.102991
1585.9822,0.103357
1587.8459,0.104313
1589.7096,0.105736
1591.5733,0.107464
1593.4369,0.109909
1595.3006,0.112673
1597.1643,0.115366
1599.0279,0.118362
1600.8916,0.122189
1602.7553,0.126624
1604.6189,0.131082
1606.4826,0.135964
1608.3463,0.141904
1610.2099,0.147421
1612.0736,0.151483
1613.9373,0.155610
1615.8010,0.164203
1617.6646,0.171867
1619.5283,0.173170
1621.3920,0.176326
1623.2556,0.182891
1625.1193,0.186684
1626.9830,0.189353
1628.8466,0.191543
1630.7103,0.191261
1632.5740,0.190388
1634.4376,0.192097
1636.3013,0.193656
1638.1650,0.190821
1640.0286,0.187181
1641.8923,0.183702
1643.7560,0.180553
1645.6197,0.178314
1647.4833,0.174853
1649.3470,0.169356
1651.2107,0.165492
1653.0743,0.163112
1654.9380,0.156238
1656.8017,0.149853
1658.6653,0.143527
1660.5290,0.137556
1662.3927,0.131808
1664.2563,0.125649
1666.1200,0.120326
1667.9837,0.115896
1669.8474,0.110657
1671.7110,0.105505
1673.5747,0.101392
1675.4384,0.097007
1677.3020,0.091850
1679.1657,0.087548
1681.0294,0.082834
1682.8930,0.079033
1684.7567,0.074042
1686.6204,0.068743
1688.4840,0.064563
1690.3477,0.059911
1692.2114,0.055081
1694.0750,0.050620
1695.9387,0.045335
1697.8024,0.040445
1699.6661,0.037175
1701.5297,0.032812
1703.3934,0.030074
1705.2571,0.028092
1707.1207,0.025851
1708.9844,0.024263
1710.8481,0.023064
1712.7117,0.022341
1714.5754,0.021888
1716.4391,0.021680
1718.3027,0.021469
1720.1664,0.021060
1722.0301,0.021165
1723.8937,0.021496
1725.7574,0.021845
1727.6211,0.022201
1729.4848,0.022447
1731.3484,0.022724
1733.2121,0.023797
1735.0758,0.024574
1736.9394,0.024527
1738.8031,0.024687
1740.6668,0.024102
1742.5304,0.023199
1744.3941,0.021950
1746.2578,0.020310
1748.1214,0.018268
1749.9851,0.015961
1751.8488,0.013381
1753.7125,0.011145
1755.5761,0.009440
1757.4398,0.007908
1759.3035,0.006860
1761.1671,0.006015
1763.0308,0.005100
1764.8945,0.004628
1766.7581,0.004297
1768.6218,0.003955
1770.4855,0.003794
1772.3491,0.003662
1774.2128,0.003283
1776.0765,0.003085
1777.9401,0.002952
1779.8038,0.002968
1781.6675,0.002684
1783.5312,0.002589
1785.3948,0.002714
1787.2585,0.002905
1789.1222,0.002870
1790.9858,0.002675
1792.8495,0.002240
1794.7132,0.002098
1796.5768,0.002217
1798.4405,0.002297
1800.3042,0.002107
1802.1678,0.001995
1804.0315,0.002127
1805.8952,0.001972
1807.7589,0.001507
1809.6225,0.001207
1811.4862,0.001215
1813.3499,0.001427
1815.2135,0.001395
1817.0772,0.001359
1818.9409,0.001536
1820.8045,0.001617
1822.6682,0.001577
1824.5319,0.001508
1826.3955,0.001369
1828.2592,0.001325
1830.1229,0.001133
1831.9865,0.001117
1833.8502,0.001398
1835.7139,0.001598
1837.5776,0.001627
1839.4412,0.001522
1841.3049,0.001295
1843.1686,0.000853
1845.0322,0.000715
1846.8959,0.001104
1848.7596,0.001193
1850.6232,0.001212
1852.4869,0.001518
1854.3506,0.001522
1856.2142,0.001114
1858.0779,0.000959
1859.9416,0.001275
1861.8052,0.001434
1863.6689,0.001391
1865.5326,0.001351
1867.3963,0.001254
1869.2599,0.001271
1871.1236,0.001938
1872.9873,0.002269
1874.8509,0.001629
1876.7146,0.000948
1878.5783,0.001200
1880.4419,0.001783
1882.3056,0.001939
1884.1693,0.001752
1886.0329,0.001662
1887.8966,0.001766
1889.7603,0.001774
1891.6240,0.001820
1893.4876,0.001934
1895.3513,0.001975
1897.2150,0.001700
1899.0786,0.001646
1900.9423,0.001922
1902.8060,0.001956
1904.6696,0.001908
1906.5333,0.001682
1908.3970,0.001949
1910.2606,0.002415
1912.1243,0.002184
1913.9880,0.001937
1915.8516,0.002144
1917.7153,0.002007
1919.5790,0.001758
1921.4427,0.001742
1923.3063,0.001954
1925.1700,0.002363
1927.0337,0.002268
1928.8973,0.001829
1930.7610,0.001908
1932.6247,0.002312
1934.4883,0.002070
1936.3520,0.001492
1938.2157,0.001861
1940.0793,0.002754
1941.9430,0.003359
1943.8067,0.003014
1945.6704,0.002640
1947.5340,0.003102
1949.3977,0.003238
1951.2614,0.002496
1953.1250,0.002091
1954.9887,0.002175
1956.8524,0.002372
1958.7160,0.002829
1960.5797,0.003399
1962.4434,0.003194
1964.3070,0.003097
1966.1707,0.004101
1968.0344,0.005035
1969.8980,0.004209
1971.7617,0.003113
1973.6254,0.004126
1975.4891,0.005479
1977.3527,0.005326
1979.2164,0.005804
1981.0801,0.006292
1982.9437,0.006091
1984.8074,0.006005
1986.6711,0.005137
1988.5347,0.004220
1990.3984,0.004967
1992.2621,0.005204
1994.1257,0.004668
1995.9894,0.004704
1997.8531,0.004995
1999.7167,0.004543
2001.5804,0.004051
2003.4441,0.004245
2005.3078,0.005098
2007.1714,0.005654
2009.0351,0.005439
2010.8988,0.005480
2012.7624,0.005891
2014.6261,0.004947
2016.4898,0.004762
2018.3534,0.006122
2020.2171,0.006624
2022.0808,0.005754
2023.9444,0.005588
2025.8081,0.006643
2027.6718,0.007037
2029.5355,0.007161
2031.3991,0.007972
2033.2628,0.007601
2035.1265,0.006652
2036.9901,0.007052
2038.8538,0.008342
2040.7175,0.009349
2042.5811,0.009275
2044.4448,0.009452
2046.3085,0.010798
2048.1721,0.011013
2050.0358,0.011016
2051.8995,0.010967
2053.7631,0.009728
2055.6268,0.009866
2057.4905,0.011196
2059.3542,0.010820
2061.2178,0.009829
2063.0815,0.009592
2064.9452,0.009536
2066.8088,0.009594
2068.6725,0.009441
2070.5362,0.009204
2072.3998,0.009020
2074.2635,0.008720
2076.1272,0.008591
2077.9908,0.008444
2079.8545,0.008214
2081.7182,0.008641
2083.5819,0.008743
2085.4455,0.007648
2087.3092,0.007206
2089.1729,0.007349
2091.0365,0.006980
2092.9002,0.006415
2094.7639,0.006736
2096.6275,0.006942
2098.4912,0.006473
2100.3549,0.006462
2102.2185,0.006994
2104.0822,0.007453
2105.9459,0.008097
2107.8095,0.007893
2109.6732,0.007311
2111.5369,0.006992
2113.4006,0.007125
2115.2642,0.006975
2117.1279,0.006630
2118.9916,0.006430
2120.8552,0.006001
2122.7189,0.005746
2124.5826,0.006268
2126.4462,0.005783
2128.3099,0.004971
2130.1736,0.004847
2132.0372,0.004492
2133.9009,0.004491
2135.7646,0.005629
2137.6282,0.006648
2139.4919,0.006476
2141.3556,0.006235
2143.2193,0.006532
2145.0829,0.006143
2146.9466,0.005906
2148.8103,0.006678
2150.6739,0.006975
2152.5376,0.005683
2154.4013,0.005255
2156.2649,0.005460
2158.1286,0.006731
2159.9923,0.009116
2161.8559,0.012020
2163.7196,0.010483
2165.5833,0.008174
2167.4470,0.009293
2169.3106,0.009907
2171.1743,0.008334
2173.0380,0.007590
2174.9016,0.007969
2176.7653,0.008200
2178.6290,0.007498
2180.4926,0.007292
2182.3563,0.007466
2184.2200,0.008197
2186.0836,0.008004
2187.9473,0.007691
2189.8110,0.008123
2191.6746,0.009150
2193.5383,0.009287
2195.4020,0.008838
2197.2657,0.008797
2199.1293,0.008630
2200.9930,0.008194
2202.8567,0.008515
2204.7203,0.008815
2206.5840,0.008780
2208.4477,0.007974
2210.3113,0.007946
2212.1750,0.008253
2214.0387,0.008408
2215.9023,0.007924
2217.7660,0.008139
2219.6297,0.008729
2221.4934,0.008345
2223.3570,0.008304
2225.2207,0.008293
2227.0844,0.008010
2228.9480,0.007923
2230.8117,0.007868
2232.6754,0.007930
2234.5390,0.007876
2236.4027,0.007638
2238.2664,0.008105
2240.1300,0.008910
2241.9937,0.008935
2243.8574,0.008419
2245.7210,0.007602
2247.5847,0.007595
2249.4484,0.008032
2251.3121,0.007667
2253.1757,0.007230
2255.0394,0.007113
2256.9031,0.007492
2258.7667,0.007811
2260.6304,0.007414
2262.4941,0.007468
2264.3577,0.007993
2266.2214,0.008329
2268.0851,0.008491
2269.9487,0.008759
2271.8124,0.008372
2273.6761,0.007611
2275.5397,0.007490
2277.4034,0.008066
2279.2671,0.008501
2281.1308,0.008258
2282.9944,0.007876
2284.8581,0.008370
2286.7218,0.008283
2288.5854,0.008076
2290.4491,0.008259
2292.3128,0.008116
2294.1764,0.007608
2296.0401,0.007410
2297.9038,0.007662
2299.7674,0.007888
2301.6311,0.007913
2303.4948,0.007818
2305.3585,0.007499
2307.2221,0.007407
2309.0858,0.007606
2310.9495,0.007578
2312.8131,0.007443
2314.6768,0.007662
2316.5405,0.008119
2318.4041,0.008532
2320.2678,0.008597
2322.1315,0.008682
2323.9951,0.008308
2325.8588,0.007662
2327.7225,0.007122
2329.5861,0.006568
2331.4498,0.006444
2333.3135,0.007143
2335.1772,0.007831
2337.0408,0.008201
2338.9045,0.007999
2340.7682,0.007720
2342.6318,0.007967
2344.4955,0.007930
2346.3592,0.006976
2348.2228,0.006456
2350.0865,0.006621
2351.9502,0.006677
2353.8138,0.006530
2355.6775,0.007162
2357.5412,0.007797
2359.4049,0.008068
2361.2685,0.008263
2363.1322,0.008729
2364.9959,0.009341
2366.8595,0.009304
2368.7232,0.008763
2370.5869,0.008597
2372.4505,0.008389
2374.3142,0.008583
2376.1779,0.008550
2378.0415,0.008234
2379.9052,0.007892
2381.7689,0.007776
2383.6325,0.007795
2385.4962,0.007733
2387.3599,0.007603
2389.2236,0.007831
2391.0872,0.008059
2392.9509,0.008043
2394.8146,0.008002
2396.6782,0.008328
2398.5419,0.008415
2400.4056,0.008164
2402.2692,0.007987
2404.1329,0.008011
2405.9966,0.008269
2407.8602,0.008719
2409.7239,0.008605
2411.5876,0.008829
2413.4512,0.008785
2415.3149,0.008325
2417.1786,0.008445
2419.0423,0.008944
2420.9059,0.009116
2422.7696,0.009103
2424.6333,0.009058
2426.4969,0.009056
2428.3606,0.009026
2430.2243,0.009048
2432.0879,0.009245
2433.9516,0.009381
2435.8153,0.009281
2437.6789,0.009272
2439.5426,0.009461
2441.4063,0.009530
2443.2700,0.010021
2445.1336,0.010452
2446.9973,0.010252
2448.8610,0.010093
2450.7246,0.010025
2452.5883,0.010020
2454.4520,0.010074
2456.3156,0.010261
2458.1793,0.010006
2460.0430,0.009918
2461.9066,0.010217
2463.7703,0.010414
2465.6340,0.010484
2467.4976,0.010327
2469.3613,0.010287
2471.2250,0.010341
2473.0887,0.010530
2474.9523,0.010638
2476.8160,0.010554
2478.6797,0.010410
2480.5433,0.010542
2482.4070,0.010947
2484.2707,0.011047
2486.1343,0.010965
2487.9980,0.010985
2489.8617,0.011249
2491.7253,0.011367
2493.5890,0.011402
2495.4527,0.011557
2497.3164,0.011729
2499.1800,0.011832
2501.0437,0.012105
2502.9074,0.011969
2504.7710,0.011726
2506.6347,0.011849
2508.4984,0.011985
2510.3620,0.012080
2512.2257,0.012105
2514.0894,0.011852
2515.9530,0.011985
2517.8167,0.011831
2519.6804,0.011782
2521.5440,0.012192
2523.4077,0.012199
2525.2714,0.012108
2527.1351,0.012363
2528.9987,0.012652
2530.8624,0.012727
2532.7261,0.012668
2534.5897,0.012574
2536.4534,0.012543
2538.3171,0.012947
2540.1807,0.013365
2542.0444,0.013387
2543.9081,0.013353
2545.7717,0.013027
2547.6354,0.013086
2549.4991,0.013176
2551.3627,0.012971
2553.2264,0.013247
2555.0901,0.013730
2556.9538,0.013752
2558.8174,0.013711
2560.6811,0.013823
2562.5448,0.013724
2564.4084,0.013932
2566.2721,0.013889
2568.1358,0.013833
2569.9994,0.014120
2571.8631,0.014567
2573.7268,0.014551
2575.5904,0.014437
2577.4541,0.014624
2579.3178,0.014793
2581.1815,0.015078
2583.0451,0.015386
2584.9088,0.015332
2586.7725,0.015120
2588.6361,0.014967
2590.4998,0.015133
2592.3635,0.015404
2594.2271,0.015736
2596.0908,0.015854
2597.9545,0.015905
2599.8181,0.016113
2601.6818,0.016330
2603.5455,0.016377
2605.4091,0.016334
2607.2728,0.016380
2609.1365,0.016608
2611.0002,0.016645
2612.8638,0.016827
2614.7275,0.016953
2616.5912,0.017060
2618.4548,0.017112
2620.3185,0.017251
2622.1822,0.017346
2624.0458,0.017524
2625.9095,0.017747
2627.7732,0.017805
2629.6368,0.018004
2631.5005,0.018143
2633.3642,0.018087
2635.2279,0.018100
2637.0915,0.018299
2638.9552,0.018481
2640.8189,0.018426
2642.6825,0.018689
2644.5462,0.018793
2646.4099,0.018934
2648.2735,0.018995
2650.1372,0.018918
2652.0009,0.019015
2653.8645,0.019172
2655.7282,0.019240
2657.5919,0.019297
2659.4555,0.019287
2661.3192,0.019297
2663.1829,0.019241
2665.0466,0.019161
2666.9102,0.019226
2668.7739,0.019533
2670.6376,0.019728
2672.5012,0.019808
2674.3649,0.019725
2676.2286,0.019782
2678.0922,0.020010
2679.9559,0.020148
2681.8196,0.020138
2683.6832,0.020245
2685.5469,0.020419
2687.4106,0.020453
2689.2742,0.020600
2691.1379,0.020775
2693.0016,0.020870
2694.8653,0.021141
2696.7289,0.021053
2698.5926,0.021158
2700.4563,0.021425
2702.3199,0.021507
2704.1836,0.021612
2706.0473,0.021901
2707.9109,0.022220
2709.7746,0.022220
2711.6383,0.022185
2713.5019,0.022398
2715.3656,0.022623
2717.2293,0.022980
2719.0930,0.023326
2720.9566,0.023477
2722.8203,0.023564
2724.6840,0.023774
2726.5476,0.024074
2728.4113,0.024129
2730.2750,0.024056
2732.1386,0.024397
2734.0023,0.024802
2735.8660,0.025127
2737.7296,0.025239
2739.5933,0.025387
2741.4570,0.025529
2743.3206,0.025570
2745.1843,0.025717
2747.0480,0.026125
2748.9117,0.026329
2750.7753,0.026424
2752.6390,0.026637
2754.5027,0.026849
2756.3663,0.026974
2758.2300,0.027453
2760.0937,0.027890
2761.9573,0.028040
2763.8210,0.028134
2765.6847,0.028425
2767.5483,0.028577
2769.4120,0.028657
2771.2757,0.028918
2773.1394,0.029268
2775.0030,0.029567
2776.8667,0.029901
2778.7304,0.030341
2780.5940,0.030590
2782.4577,0.030680
2784.3214,0.031023
2786.1850,0.031461
2788.0487,0.031821
2789.9124,0.031825
2791.7760,0.031806
2793.6397,0.032271
2795.5034,0.032937
2797.3670,0.033067
2799.2307,0.033341
2801.0944,0.033789
2802.9581,0.034041
2804.8217,0.034391
2806.6854,0.034737
2808.5491,0.034934
2810.4127,0.035348
2812.2764,0.035973
2814.1401,0.036537
2816.0037,0.036972
2817.8674,0.037471
2819.7311,0.037841
2821.5947,0.038220
2823.4584,0.038754
2825.3221,0.039389
2827.1857,0.039909
2829.0494,0.040434
2830.9131,0.041108
2832.7768,0.042068
2834.6404,0.043159
2836.5041,0.044287
2838.3678,0.045699
2840.2314,0.047451
2842.0951,0.049432
2843.9588,0.051941
2845.8224,0.054474
2847.6861,0.056849
2849.5498,0.058931
2851.4134,0.060084
2853.2771,0.060169
2855.1408,0.059778
2857.0045,0.058992
2858.8681,0.058154
2860.7318,0.057266
2862.5955,0.056849
2864.4591,0.056745
2866.3228,0.056918
2868.1865,0.057503
2870.0501,0.058047
2871.9138,0.058166
2873.7775,0.058028
2875.6411,0.057573
2877.5048,0.057296
2879.3685,0.057003
2881.2321,0.056575
2883.0958,0.056589
2884.9595,0.057073
2886.8232,0.057673
2888.6868,0.058355
2890.5505,0.058877
2892.4142,0.059957
2894.2778,0.061062
2896.1415,0.061919
2898.0052,0.062846
2899.8688,0.063806
2901.7325,0.064915
2903.5962,0.066277
2905.4598,0.067247
2907.3235,0.068378
2909.1872,0.069953
2911.0509,0.071781
2912.9145,0.073897
2914.7782,0.075914
2916.6419,0.077726
2918.5055,0.079228
2920.3692,0.080174
2922.2329,0.080922
2924.0965,0.080699
2925.9602,0.079806
2927.8239,0.078597
2929.6875,0.077286
2931.5512,0.075783
2933.4149,0.074018
2935.2785,0.071964
2937.1422,0.070205
2939.0059,0.069070
2940.8696,0.068136
2942.7332,0.067001
2944.5969,0.066352
2946.4606,0.066222
2948.3242,0.066291
2950.1879,0.066358
2952.0516,0.066678
2953.9152,0.066871
2955.7789,0.066956
2957.6426,0.066634
2959.5062,0.065655
2961.3699,0.064444
2963.2336,0.063162
2965.0972,0.061706
2966.9609,0.060287
2968.8246,0.058681
2970.6883,0.057104
2972.5519,0.055623
2974.4156,0.054306
2976.2793,0.052997
2978.1429,0.051896
2980.0066,0.050775
2981.8703,0.049671
2983.7339,0.048743
2985.5976,0.048142
2987.4613,0.047513
2989.3249,0.046918
2991.1886,0.046300
2993.0523,0.045891
2994.9160,0.045460
2996.7796,0.045178
2998.6433,0.044881
3000.5070,0.044811
3002.3706,0.045029
3004.2343,0.045339
3006.0980,0.045485
3007.9616,0.045634
3009.8253,0.045868
3011.6890,0.046123
3013.5526,0.046177
3015.4163,0.046191
3017.2800,0.046551
3019.1436,0.047104
3021.0073,0.047608
3022.8710,0.048129
3024.7347,0.048403
3026.5983,0.048769
3028.4620,0.049519
3030.3257,0.050074
3032.1893,0.050345
3034.0530,0.050759
3035.9167,0.050964
3037.7803,0.051219
3039.6440,0.051815
3041.5077,0.052192
3043.3713,0.052114
3045.2350,0.052364
3047.0987,0.052991
3048.9624,0.053670
3050.8260,0.054126
3052.6897,0.054449
3054.5534,0.054684
3056.4170,0.054878
3058.2807,0.055036
3060.1444,0.055358
3062.0080,0.055690
3063.8717,0.056028
3065.7354,0.056395
3067.5990,0.056533
3069.4627,0.056200
3071.3264,0.056053
3073.1900,0.056321
3075.0537,0.056754
3076.9174,0.056853
3078.7811,0.056744
3080.6447,0.056728
3082.5084,0.056670
3084.3721,0.056409
3086.2357,0.056409
3088.0994,0.056550
3089.9631,0.056176
3091.8267,0.055915
3093.6904,0.056201
3095.5541,0.056208
3097.4177,0.056326
3099.2814,0.056311
3101.1451,0.056047
3103.0087,0.056010
3104.8724,0.056093
3106.7361,0.056380
3108.5998,0.056815
3110.4634,0.056759
3112.3271,0.056704
3114.1908,0.057119
3116.0544,0.057627
3117.9181,0.057748
3119.7818,0.057624
3121.6454,0.057750
3123.5091,0.058243
3125.3728,0.058681
3127.2364,0.059155
3129.1001,0.059407
3130.9638,0.059649
3132.8275,0.060257
3134.6911,0.060790
3136.5548,0.060806
3138.4185,0.061006
3140.2821,0.061390
3142.1458,0.061803
3144.0095,0.062172
3145.8731,0.062818
3147.7368,0.063618
3149.6005,0.063943
3151.4641,0.064233
3153.3278,0.064991
3155.1915,0.065789
3157.0551,0.066249
3158.9188,0.066402
3160.7825,0.067044
3162.6462,0.067821
3164.5098,0.068428
3166.3735,0.068775
3168.2372,0.069065
3170.1008,0.069307
3171.9645,0.069555
3173.8282,0.070323
3175.6918,0.070960
3177.5555,0.071324
3179.4192,0.072145
3181.2828,0.072621
3183.1465,0.072911
3185.0102,0.073716
3186.8739,0.074278
3188.7375,0.074464
3190.6012,0.075080
3192.4649,0.075685
3194.3285,0.075675
3196.1922,0.075400
3198.0559,0.075836
3199.9195,0.076371
3201.7832,0.076744
3203.6469,0.077407
3205.5105,0.077802
3207.3742,0.077877
3209.2379,0.078106
3211.1015,0.078459
3212.9652,0.078776
3214.8289,0.079090
3216.6926,0.079489
3218.5562,0.079413
3220.4199,0.079629
3222.2836,0.080234
3224.1472,0.080348
3226.0109,0.080498
3227.8746,0.081294
3229.7382,0.081733
3231.6019,0.081997
3233.4656,0.082519
3235.3292,0.082711
3237.1929,0.082933
3239.0566,0.083382
3240.9202,0.083952
3242.7839,0.084617
3244.6476,0.085016
3246.5113,0.085323
3248.3749,0.085916
3250.2386,0.086755
3252.1023,0.087338
3253.9659,0.087646
3255.8296,0.088013
3257.6933,0.088501
3259.5569,0.088972
3261.4206,0.089370
3263.2843,0.089834
3265.1479,0.090263
3267.0116,0.090377
3268.8753,0.090657
3270.7390,0.090877
3272.6026,0.090613
3274.4663,0.090417
3276.3300,0.090159
3278.1936,0.089773
3280.0573,0.089798
3281.9210,0.090016
3283.7846,0.090144
3285.6483,0.089913
3287.5120,0.088971
3289.3756,0.088184
3291.2393,0.087949
3293.1030,0.087647
3294.9666,0.087234
3296.8303,0.086713
3298.6940,0.085688
3300.5577,0.085294
3302.4213,0.085110
3304.2850,0.084241
3306.1487,0.083102
3308.0123,0.082343
3309.8760,0.081564
3311.7397,0.080744
3313.6033,0.080444
3315.4670,0.079949
3317.3307,0.079028
3319.1943,0.078258
3321.0580,0.077816
3322.9217,0.078051
3324.7854,0.077851
3326.6490,0.076710
3328.5127,0.076054
3330.3764,0.075652
3332.2400,0.075090
3334.1037,0.075166
3335.9674,0.075045
3337.8310,0.073910
3339.6947,0.072575
3341.5584,0.071871
3343.4220,0.071952
3345.2857,0.071604
3347.1494,0.070840
3349.0130,0.070515
3350.8767,0.070131
3352.7404,0.069462
3354.6041,0.068726
3356.4677,0.068375
3358.3314,0.068628
3360.1951,0.068750
3362.0587,0.068234
3363.9224,0.067337
3365.7861,0.066582
3367.6497,0.066191
3369.5134,0.066071
3371.3771,0.065869
3373.2407,0.065068
3375.1044,0.064285
3376.9681,0.064026
3378.8317,0.064095
3380.6954,0.064005
3382.5591,0.064017
3384.4228,0.063746
3386.2864,0.062937
3388.1501,0.062033
3390.0138,0.061383
3391.8774,0.061073
3393.7411,0.061046
3395.6048,0.060769
3397.4684,0.060575
3399.3321,0.060000
3401.1958,0.059711
3403.0594,0.059538
3404.9231,0.058872
3406.7868,0.058379
3408.6505,0.058350
3410.5141,0.058100
3412.3778,0.057830
3414.2415,0.057703
3416.1051,0.057579
3417.9688,0.057141
3419.8325,0.056769
3421.6961,0.056261
3423.5598,0.055513
3425.4235,0.054864
3427.2871,0.054487
3429.1508,0.053641
3431.0145,0.053071
3432.8781,0.053503
3434.7418,0.053395
3436.6055,0.053049
3438.4692,0.053163
3440.3328,0.053149
3442.1965,0.052439
3444.0602,0.051526
3445.9238,0.051241
3447.7875,0.050857
3449.6512,0.050423
3451.5148,0.049568
3453.3785,0.048691
3455.2422,0.048537
3457.1058,0.048553
3458.9695,0.048072
3460.8332,0.047211
3462.6969,0.046889
3464.5605,0.046805
3466.4242,0.046441
3468.2879,0.046066
3470.1515,0.045369
3472.0152,0.044830
3473.8789,0.045364
3475.7425,0.044951
3477.6062,0.043656
3479.4699,0.043300
3481.3335,0.043439
3483.1972,0.042908
3485.0609,0.041693
3486.9245,0.040793
3488.7882,0.040407
3490.6519,0.040137
3492.5156,0.039709
3494.3792,0.039096
3496.2429,0.038198
3498.1066,0.037828
3499.9702,0.037605
3501.8339,0.037309
3503.6976,0.036532
3505.5612,0.036172
3507.4249,0.036007
3509.2886,0.035204
3511.1522,0.035300
3513.0159,0.035101
3514.8796,0.034193
3516.7432,0.033694
3518.6069,0.032896
3520.4706,0.032420
3522.3343,0.032355
3524.1979,0.031891
3526.0616,0.030995
3527.9253,0.030945
3529.7889,0.030311
3531.6526,0.029634
3533.5163,0.029127
3535.3799,0.027977
3537.2436,0.027488
3539.1073,0.027159
3540.9709,0.026828
3542.8346,0.026691
3544.6983,0.026326
3546.5620,0.025490
3548.4256,0.025121
3550.2893,0.024931
3552.1530,0.023496
3554.0166,0.022987
3555.8803,0.023044
3557.7440,0.022483
3559.6076,0.021878
3561.4713,0.021128
3563.3350,0.020107
3565.1986,0.019376
3567.0623,0.019076
3568.9260,0.018596
3570.7896,0.018143
3572.6533,0.017683
3574.5170,0.017538
3576.3807,0.017269
3578.2443,0.016464
3580.1080,0.015471
3581.9717,0.014590
3583.8353,0.014128
3585.6990,0.013311
3587.5627,0.012955
3589.4263,0.012729
3591.2900,0.012338
3593.1537,0.012209
3595.0173,0.012094
3596.8810,0.011663
3598.7447,0.010834
3600.6084,0.009961
3602.4720,0.009604
3604.3357,0.009101
3606.1994,0.008382
3608.0630,0.008089
3609.9267,0.008264
3611.7904,0.007741
3613.6540,0.006373
3615.5177,0.005770
3617.3814,0.005929
3619.2450,0.005260
3621.1087,0.004547
3622.9724,0.004705
3624.8360,0.004499
3626.6997,0.004088
3628.5634,0.003450
3630.4271,0.002841
3632.2907,0.002781
3634.1544,0.002262
3636.0181,0.002066
3637.8817,0.002124
3639.7454,0.001574
3641.6091,0.000972
3643.4727,0.000747
3645.3364,0.000647
3647.2001,-0.000100
3649.0637,-0.000959
3650.9274,-0.001518
3652.7911,-0.001615
3654.6547,-0.001440
3656.5184,-0.002064
3658.3821,-0.002606
3660.2458,-0.002493
3662.1094,-0.002514
3663.9731,-0.002791
3665.8368,-0.003199
3667.7004,-0.003255
3669.5641,-0.003851
3671.4278,-0.004779
3673.2914,-0.004646
3675.1551,-0.004593
3677.0188,-0.005146
3678.8824,-0.005110
3680.7461,-0.005153
3682.6098,-0.005013
3684.4735,-0.004954
3686.3371,-0.005070
3688.2008,-0.005441
3690.0645,-0.006313
3691.9281,-0.006609
3693.7918,-0.006415
3695.6555,-0.006175
3697.5191,-0.005991
3699.3828,-0.005985
3701.2465,-0.005916
3703.1101,-0.005735
3704.9738,-0.005755
3706.8375,-0.005831
3708.7011,-0.005974
3710.5648,-0.006615
3712.4285,-0.007114
3714.2922,-0.006954
3716.1558,-0.006218
3718.0195,-0.006154
3719.8832,-0.006197
3721.7468,-0.006281
3723.6105,-0.006420
3725.4742,-0.006141
3727.3378,-0.006462
3729.2015,-0.006577
3731.0652,-0.005890
3732.9288,-0.006021
3734.7925,-0.006948
3736.6562,-0.007479
3738.5199,-0.006911
3740.3835,-0.005994
3742.2472,-0.005708
3744.1109,-0.006513
3745.9745,-0.006912
3747.8382,-0.006660
3749.7019,-0.007136
3751.5655,-0.007621
3753.4292,-0.007609
3755.2929,-0.007176
3757.1565,-0.006613
3759.0202,-0.006342
3760.8839,-0.006483
3762.7475,-0.006112
3764.6112,-0.005983
3766.4749,-0.006278
3768.3386,-0.006149
3770.2022,-0.005830
3772.0659,-0.006031
3773.9296,-0.006415
3775.7932,-0.006515
3777.6569,-0.006155
3779.5206,-0.005649
3781.3842,-0.005605
3783.2479,-0.005825
3785.1116,-0.006061
3786.9752,-0.006179
3788.8389,-0.005920
3790.7026,-0.005841
3792.5662,-0.005923
3794.4299,-0.006181
3796.2936,-0.006194
3798.1573,-0.005811
3800.0209,-0.005506
3801.8846,-0.005909
3803.7483,-0.006239
3805.6119,-0.006364
3807.4756,-0.006599
3809.3393,-0.006568
3811.2029,-0.006395
3813.0666,-0.006112
3814.9303,-0.005929
3816.7939,-0.005850
3818.6576,-0.005906
3820.5213,-0.006182
3822.3850,-0.006485
3824.2486,-0.006255
3826.1123,-0.006085
3827.9760,-0.005909
3829.8396,-0.005826
3831.7033,-0.005900
3833.5670,-0.006136
3835.4306,-0.006184
3837.2943,-0.006308
3839.1580,-0.006731
3841.0216,-0.006631
3842.8853,-0.006332
3844.7490,-0.006443
3846.6126,-0.006188
3848.4763,-0.005816
3850.3400,-0.005814
3852.2037,-0.005801
3854.0673,-0.006151
3855.9310,-0.006499
3857.7947,-0.006433
3859.6583,-0.006395
3861.5220,-0.006157
3863.3857,-0.005962
3865.2493,-0.006299
3867.1130,-0.006327
3868.9767,-0.006053
3870.8403,-0.005867
3872.7040,-0.005679
3874.5677,-0.005973
3876.4314,-0.005918
3878.2950,-0.005810
3880.1587,-0.005736
3882.0224,-0.005767
3883.8860,-0.005580
3885.7497,-0.005830
3887.6134,-0.005937
3889.4770,-0.005685
3891.3407,-0.005479
3893.2044,-0.005618
3895.0680,-0.005671
3896.9317,-0.005508
3898.7954,-0.005366
3900.6590,-0.005429
3902.5227,-0.005579
3904.3864,-0.005982
3906.2501,-0.006340
3908.1137,-0.005823
3909.9774,-0.005398
3911.8411,-0.005224
3913.7047,-0.005353
3915.5684,-0.005507
3917.4321,-0.005475
3919.2957,-0.005529
3921.1594,-0.005482
3923.0231,-0.005484
3924.8867,-0.005370
3926.7504,-0.005242
3928.6141,-0.005140
3930.4777,-0.005448
3932.3414,-0.005857
3934.2051,-0.005584
3936.0688,-0.005452
3937.9324,-0.005458
3939.7961,-0.005131
3941.6598,-0.005112
3943.5234,-0.005387
3945.3871,-0.005320
3947.2508,-0.005106
3949.1144,-0.004943
3950.9781,-0.004845
3952.8418,-0.004977
3954.7054,-0.004989
3956.5691,-0.004837
3958.4328,-0.005420
3960.2965,-0.005940
3962.1601,-0.005684
3964.0238,-0.005298
3965.8875,-0.005182
3967.7511,-0.005073
3969.6148,-0.005296
3971.4785,-0.005295
3973.3421,-0.005015
3975.2058,-0.005033
3977.0695,-0.005188
3978.9331,-0.005122
3980.7968,-0.005282
3982.6605,-0.005449
3984.5241,-0.005598
3986.3878,-0.005557
3988.2515,-0.005225
3990.1152,-0.005178
3991.9788,-0.005085
3993.8425,-0.005098
3995.7062,-0.005353
3997.5698,-0.005077
3999.4335,-0.004691
