Wavenumber,Intensity
650.4205,0.046643
652.2841,0.044504
654.1478,0.042723
656.0115,0.044824
657.8751,0.046149
659.7388,0.044594
661.6025,0.042266
663.4661,0.040163
665.3298,0.039982
667.1935,0.041814
669.0571,0.044091
670.9208,0.042534
672.7845,0.040875
674.6481,0.039625
676.5118,0.039449
678.3755,0.039688
680.2392,0.039294
682.1028,0.038537
683.9665,0.036817
685.8302,0.036026
687.6938,0.036793
689.5575,0.036634
691.4212,0.035576
693.2848,0.035439
695.1485,0.036642
697.0122,0.036332
698.8758,0.034670
700.7395,0.033798
702.6032,0.033722
704.4669,0.034272
706.3305,0.034444
708.1942,0.033892
710.0579,0.033106
711.9215,0.032051
713.7852,0.030757
715.6489,0.029890
717.5125,0.029802
719.3762,0.029764
721.2399,0.029053
723.1035,0.028606
724.9672,0.028930
726.8309,0.028528
728.6945,0.027941
730.5582,0.027552
732.4219,0.026952
734.2856,0.026871
736.1492,0.026707
738.0129,0.026321
739.8766,0.026190
741.7402,0.026185
743.6039,0.026323
745.4676,0.026283
747.3312,0.025788
749.1949,0.025184
751.0586,0.024807
752.9222,0.024518
754.7859,0.024558
756.6496,0.024505
758.5132,0.024117
760.3769,0.023836
762.2406,0.023942
764.1043,0.024538
765.9679,0.024671
767.8316,0.023967
769.6953,0.023090
771.5589,0.022326
773.4226,0.021891
775.2863,0.021843
777.1499,0.021748
779.0136,0.021827
780.8773,0.022072
782.7409,0.021750
784.6046,0.021130
786.4683,0.020811
788.3320,0.020927
790.1956,0.020884
792.0593,0.020215
793.9230,0.019659
795.7866,0.019366
797.6503,0.019334
799.5140,0.019397
801.3776,0.019256
803.2413,0.019127
805.1050,0.019158
806.9686,0.019191
808.8323,0.019133
810.6960,0.019134
812.5596,0.019129
814.4233,0.019105
816.2870,0.019192
818.1507,0.019115
820.0143,0.018692
821.8780,0.018431
823.7417,0.018388
825.6053,0.017948
827.4690,0.017359
829.3327,0.017247
831.1963,0.017331
833.0600,0.017199
834.9237,0.016912
836.7873,0.016428
838.6510,0.016043
840.5147,0.015973
842.3784,0.016040
844.2420,0.016166
846.1057,0.016123
847.9694,0.015932
849.8330,0.015867
851.6967,0.015825
853.5604,0.015579
855.4240,0.015356
857.2877,0.015376
859.1514,0.015407
861.0150,0.015521
862.8787,0.015677
864.7424,0.015664
866.6060,0.015572
868.4697,0.015703
870.3334,0.016031
872.1971,0.016243
874.0607,0.016232
875.9244,0.016054
877.7881,0.015931
879.6517,0.015907
881.5154,0.015776
883.3791,0.015535
885.2427,0.015430
887.1064,0.015496
888.9701,0.015565
890.8337,0.015629
892.6974,0.015758
894.5611,0.015894
896.4247,0.016023
898.2884,0.016141
900.1521,0.016018
902.0158,0.015828
903.8794,0.015783
905.7431,0.015925
907.6068,0.016119
909.4704,0.016191
911.3341,0.016247
913.1978,0.016539
915.0614,0.016861
916.9251,0.016953
918.7888,0.017082
920.6524,0.017225
922.5161,0.017322
924.3798,0.017302
926.2435,0.017219
928.1071,0.017221
929.9708,0.017347
931.8345,0.017502
933.6981,0.017478
935.5618,0.017460
937.4255,0.017721
939.2891,0.018092
941.1528,0.018408
943.0165,0.018593
944.8801,0.018734
946.7438,0.019036
948.6075,0.019410
950.4711,0.019765
952.3348,0.020108
954.1985,0.020629
956.0622,0.021234
957.9258,0.021839
959.7895,0.022459
961.6532,0.023179
963.5168,0.023890
965.3805,0.024405
967.2442,0.024685
969.1078,0.024837
970.9715,0.024951
972.8352,0.025073
974.6988,0.025258
976.5625,0.025484
978.4262,0.025962
980.2899,0.026710
982.1535,0.027436
984.0172,0.027984
985.8809,0.028489
987.7445,0.029120
989.6082,0.029763
991.4719,0.030319
993.3355,0.030988
995.1992,0.031648
997.0629,0.032127
998.9265,0.032606
1000.7902,0.033073
1002.6539,0.033487
1004.5175,0.033996
1006.3812,0.034653
1008.2449,0.035407
1010.1086,0.036254
1011.9722,0.037140
1013.8359,0.037999
1015.6996,0.038923
1017.5632,0.039856
1019.4269,0.040594
1021.2906,0.041119
1023.1542,0.041605
1025.0179,0.042015
1026.8816,0.042308
1028.7452,0.042695
1030.6089,0.042999
1032.4726,0.043162
1034.3362,0.043224
1036.1999,0.043187
1038.0636,0.043053
1039.9273,0.042788
1041.7909,0.042519
1043.6546,0.042308
1045.5183,0.042001
1047.3819,0.041726
1049.2456,0.041586
1051.1093,0.041426
1052.9729,0.041253
1054.8366,0.041079
1056.7003,0.040836
1058.5639,0.040584
1060.4276,0.040444
1062.2913,0.040328
1064.1550,0.040167
1066.0186,0.040037
1067.8823,0.040016
1069.7460,0.040025
1071.6096,0.039976
1073.4733,0.039804
1075.3370,0.039421
1077.2006,0.038836
1079.0643,0.038110
1080.9280,0.037253
1082.7916,0.036288
1084.6553,0.035244
1086.5190,0.034110
1088.3826,0.033020
1090.2463,0.032154
1092.1100,0.031402
1093.9737,0.030720
1095.8373,0.030079
1097.7010,0.029525
1099.5647,0.029126
1101.4283,0.028797
1103.2920,0.028531
1105.1557,0.028285
1107.0193,0.028080
1108.8830,0.027915
1110.7467,0.027748
1112.6103,0.027615
1114.4740,0.027489
1116.3377,0.027242
1118.2014,0.026982
1120.0650,0.026716
1121.9287,0.026341
1123.7924,0.026005
1125.6560,0.025644
1127.5197,0.025160
1129.3834,0.024706
1131.2470,0.024258
1133.1107,0.023833
1134.9744,0.023461
1136.8380,0.023075
1138.7017,0.022737
1140.5654,0.022529
1142.4290,0.022461
1144.2927,0.022427
1146.1564,0.022544
1148.0201,0.022707
1149.8837,0.022788
1151.7474,0.022848
1153.6111,0.022826
1155.4747,0.022782
1157.3384,0.022687
1159.2021,0.022529
1161.0657,0.022302
1162.9294,0.022070
1164.7931,0.021810
1166.6567,0.021428
1168.5204,0.020963
1170.3841,0.020429
1172.2477,0.019753
1174.1114,0.019025
1175.9751,0.018345
1177.8388,0.017754
1179.7024,0.017336
1181.5661,0.017056
1183.4298,0.016933
1185.2934,0.017015
1187.1571,0.017170
1189.0208,0.017368
1190.8844,0.017639
1192.7481,0.017947
1194.6118,0.018356
1196.4754,0.018884
1198.3391,0.019404
1200.2028,0.019919
1202.0665,0.020457
1203.9301,0.020938
1205.7938,0.021350
1207.6575,0.021788
1209.5211,0.022206
1211.3848,0.022592
1213.2485,0.023049
1215.1121,0.023460
1216.9758,0.023874
1218.8395,0.024339
1220.7031,0.024729
1222.5668,0.025127
1224.4305,0.025457
1226.2941,0.025674
1228.1578,0.025855
1230.0215,0.025968
1231.8852,0.026107
1233.7488,0.026159
1235.6125,0.026110
1237.4762,0.026033
1239.3398,0.025860
1241.2035,0.025737
1243.0672,0.025681
1244.9308,0.025420
1246.7945,0.025081
1248.6582,0.024709
1250.5218,0.024409
1252.3855,0.024068
1254.2492,0.023757
1256.1129,0.023472
1257.9765,0.023106
1259.8402,0.022802
1261.7039,0.022590
1263.5675,0.022539
1265.4312,0.022368
1267.2949,0.022170
1269.1585,0.021969
1271.0222,0.021730
1272.8859,0.021602
1274.7495,0.021581
1276.6132,0.021556
1278.4769,0.021406
1280.3405,0.021271
1282.2042,0.021260
1284.0679,0.021226
1285.9316,0.021123
1287.7952,0.021118
1289.6589,0.021191
1291.5226,0.021302
1293.3862,0.021422
1295.2499,0.021505
1297.1136,0.021615
1298.9772,0.021823
1300.8409,0.021975
1302.7046,0.022028
1304.5682,0.022084
1306.4319,0.022201
1308.2956,0.022294
1310.1592,0.022352
1312.0229,0.022402
1313.8866,0.022340
1315.7503,0.022193
1317.6139,0.022059
1319.4776,0.021989
1321.3413,0.021758
1323.2049,0.021525
1325.0686,0.021394
1326.9323,0.021311
1328.7959,0.021287
1330.6596,0.021173
1332.5233,0.021142
1334.3869,0.021085
1336.2506,0.021029
1338.1143,0.021191
1339.9780,0.021362
1341.8416,0.021345
1343.7053,0.021216
1345.5690,0.021149
1347.4326,0.021180
1349.2963,0.021225
1351.1600,0.021301
1353.0236,0.021358
1354.8873,0.021411
1356.7510,0.021519
1358.6146,0.021624
1360.4783,0.021821
1362.3420,0.022417
1364.2056,0.023124
1366.0693,0.023539
1367.9330,0.023910
1369.7967,0.024234
1371.6603,0.024471
1373.5240,0.024835
1375.3877,0.025250
1377.2513,0.025458
1379.1150,0.025622
1380.9787,0.025669
1382.8423,0.025619
1384.7060,0.025576
1386.5697,0.025716
1388.4333,0.025868
1390.2970,0.025595
1392.1607,0.025324
1394.0244,0.025424
1395.8880,0.025571
1397.7517,0.025596
1399.6154,0.025792
1401.4790,0.025689
1403.3427,0.025319
1405.2064,0.025237
1407.0700,0.025157
1408.9337,0.024851
1410.7974,0.024600
1412.6610,0.024383
1414.5247,0.023980
1416.3884,0.023574
1418.2520,0.023571
1420.1157,0.023781
1421.9794,0.023428
1423.8431,0.023282
1425.7067,0.023267
1427.5704,0.023062
1429.4341,0.023181
1431.2977,0.023349
1433.1614,0.023344
1435.0251,0.023543
1436.8887,0.024547
1438.7524,0.025026
1440.6161,0.024715
1442.4797,0.024689
1444.3434,0.024740
1446.2071,0.024721
1448.0707,0.024842
1449.9344,0.024836
1451.7981,0.024385
1453.6618,0.023740
1455.5254,0.023380
1457.3891,0.023933
1459.2528,0.023545
1461.1164,0.022534
1462.9801,0.021851
1464.8438,0.021727
1466.7074,0.021311
1468.5711,0.020438
1470.4348,0.019573
1472.2984,0.019031
1474.1621,0.018821
1476.0258,0.018597
1477.8895,0.018390
1479.7531,0.018223
1481.6168,0.018377
1483.4805,0.018616
1485.3441,0.018963
1487.2078,0.019685
1489.0715,0.021053
1490.9351,0.022729
1492.7988,0.023329
1494.6625,0.023718
1496.5261,0.025202
1498.3898,0.026963
1500.2535,0.027864
1502.1171,0.027957
1503.9808,0.027902
1505.8445,0.029370
1507.7082,0.032539
1509.5718,0.033371
1511.4355,0.033624
1513.2992,0.033784
1515.1628,0.033982
1517.0265,0.034448
1518.8902,0.034552
1520.7538,0.034712
1522.6175,0.035381
1524.4812,0.035415
1526.3448,0.035892
1528.2085,0.036280
1530.0722,0.036057
1531.9359,0.035933
1533.7995,0.036391
1535.6632,0.036159
1537.5269,0.035233
1539.3905,0.035081
1541.2542,0.036027
1543.1179,0.035804
1544.9815,0.035028
1546.8452,0.034104
1548.7089,0.033308
1550.5725,0.032347
1552.4362,0.031300
1554.2999,0.030297
1556.1635,0.029045
1558.0272,0.028064
1559.8909,0.028430
1561.7546,0.027464
1563.6182,0.026252
1565.4819,0.025372
1567.3456,0.024761
1569.2092,0.024301
1571.0729,0.024021
1572.9366,0.023265
1574.8002,0.022663
1576.6639,0.022808
1578.5276,0.022670
1580.3912,0.022324
1582.2549,0.022224
1584.1186,0.022058
1585.9822,0.021996
1587.8459,0.022098
1589.7096,0.022324
1591.5733,0.022559
1593.4369,0.022785
1595.3006,0.023099
1597.1643,0.023299
1599.0279,0.023705
1600.8916,0.024266
1602.7553,0.024939
1604.6189,0.025573
1606.4826,0.026394
1608.3463,0.027547
1610.2099,0.028625
1612.0736,0.029433
1613.9373,0.030128
1615.8010,0.031395
1617.6646,0.033283
1619.5283,0.034115
1621.3920,0.034843
1623.2556,0.036232
1625.1193,0.037446
1626.9830,0.038371
1628.8466,0.039431
1630.7103,0.039962
1632.5740,0.040254
1634.4376,0.040452
1636.3013,0.040901
1638.1650,0.041161
1640.0286,0.040719
1641.8923,0.040219
1643.7560,0.039799
1645.6197,0.039265
1647.4833,0.038755
1649.3470,0.038329
1651.2107,0.037786
1653.0743,0.037101
1654.9380,0.035924
1656.8017,0.034822
1658.6653,0.033664
1660.5290,0.032367
1662.3927,0.030883
1664.2563,0.029513
1666.1200,0.028263
1667.9837,0.026936
1669.8474,0.025516
1671.7110,0.024408
1673.5747,0.023216
1675.4384,0.021924
1677.3020,0.020885
1679.1657,0.019598
1681.0294,0.018019
1682.8930,0.016814
1684.7567,0.015242
1686.6204,0.013902
1688.4840,0.012543
1690.3477,0.011193
1692.2114,0.010154
1694.0750,0.008758
1695.9387,0.006914
1697.8024,0.005642
1699.6661,0.004178
1701.5297,0.002776
1703.3934,0.001629
1705.2571,0.000639
1707.1207,-0.000082
1708.9844,-0.000613
1710.8481,-0.001055
1712.7117,-0.001404
1714.5754,-0.002014
1716.4391,-0.002789
1718.3027,-0.002963
1720.1664,-0.002528
1722.0301,-0.002598
1723.8937,-0.002919
1725.7574,-0.003026
1727.6211,-0.003007
1729.4848,-0.002990
1731.3484,-0.002914
1733.2121,-0.003295
1735.0758,-0.003069
1736.9394,-0.002661
1738.8031,-0.002725
1740.6668,-0.002554
1742.5304,-0.002349
1744.3941,-0.002380
1746.2578,-0.002688
1748.1214,-0.003167
1749.9851,-0.003640
1751.8488,-0.003910
1753.7125,-0.004008
1755.5761,-0.004503
1757.4398,-0.004860
1759.3035,-0.005043
1761.1671,-0.005327
1763.0308,-0.005438
1764.8945,-0.005543
1766.7581,-0.005715
1768.6218,-0.005852
1770.4855,-0.006064
1772.3491,-0.006258
1774.2128,-0.006088
1776.0765,-0.005998
1777.9401,-0.005987
1779.8038,-0.006059
1781.6675,-0.005952
1783.5312,-0.005931
1785.3948,-0.005960
1787.2585,-0.005934
1789.1222,-0.006072
1790.9858,-0.006205
1792.8495,-0.006074
1794.7132,-0.005982
1796.5768,-0.005979
1798.4405,-0.006064
1800.3042,-0.006038
1802.1678,-0.005752
1804.0315,-0.005710
1805.8952,-0.005818
1807.7589,-0.005939
1809.6225,-0.006064
1811.4862,-0.005976
1813.3499,-0.005801
1815.2135,-0.005929
1817.0772,-0.006017
1818.9409,-0.005856
1820.8045,-0.005692
1822.6682,-0.005605
1824.5319,-0.005550
1826.3955,-0.005410
1828.2592,-0.005395
1830.1229,-0.005583
1831.9865,-0.005718
1833.8502,-0.005493
1835.7139,-0.005023
1837.5776,-0.005046
1839.4412,-0.005173
1841.3049,-0.005322
1843.1686,-0.005328
1845.0322,-0.005041
1846.8959,-0.004824
1848.7596,-0.004814
1850.6232,-0.004843
1852.4869,-0.004790
1854.3506,-0.004743
1856.2142,-0.004776
1858.0779,-0.004621
1859.9416,-0.004644
1861.8052,-0.004854
1863.6689,-0.004707
1865.5326,-0.004272
1867.3963,-0.004446
1869.2599,-0.004954
1871.1236,-0.004530
1872.9873,-0.004150
1874.8509,-0.004283
1876.7146,-0.004471
1878.5783,-0.004385
1880.4419,-0.004251
1882.3056,-0.004397
1884.1693,-0.004774
1886.0329,-0.004713
1887.8966,-0.004159
1889.7603,-0.004132
1891.6240,-0.004029
1893.4876,-0.003642
1895.3513,-0.003889
1897.2150,-0.004345
1899.0786,-0.004323
1900.9423,-0.003928
1902.8060,-0.003690
1904.6696,-0.003517
1906.5333,-0.003278
1908.3970,-0.003335
1910.2606,-0.003657
1912.1243,-0.004020
1913.9880,-0.003973
1915.8516,-0.003839
1917.7153,-0.004028
1919.5790,-0.004119
1921.4427,-0.004000
1923.3063,-0.003491
1925.1700,-0.003178
1927.0337,-0.003140
1928.8973,-0.003491
1930.7610,-0.003734
1932.6247,-0.003517
1934.4883,-0.003256
1936.3520,-0.003097
1938.2157,-0.002644
1940.0793,-0.002689
1941.9430,-0.003140
1943.8067,-0.003008
1945.6704,-0.002177
1947.5340,-0.001895
1949.3977,-0.002357
1951.2614,-0.002155
1953.1250,-0.001923
1954.9887,-0.001966
1956.8524,-0.001949
1958.7160,-0.001421
1960.5797,-0.001002
1962.4434,-0.000656
1964.3070,-0.000255
1966.1707,0.000225
1968.0344,-0.000147
1969.8980,-0.001350
1971.7617,-0.000482
1973.6254,0.000554
1975.4891,0.000529
1977.3527,0.000927
1979.2164,0.001540
1981.0801,0.001526
1982.9437,0.000876
1984.8074,0.000275
1986.6711,-0.000051
1988.5347,-0.000057
1990.3984,0.000137
1992.2621,0.000574
1994.1257,0.000493
1995.9894,0.000132
1997.8531,-0.000424
1999.7167,-0.000344
2001.5804,-0.000215
2003.4441,-0.000022
2005.3078,0.000135
2007.1714,0.000062
2009.0351,0.000619
2010.8988,0.001130
2012.7624,0.001184
2014.6261,0.001186
2016.4898,0.000615
2018.3534,-0.000209
2020.2171,-0.000180
2022.0808,0.001329
2023.9444,0.002440
2025.8081,0.001636
2027.6718,0.001433
2029.5355,0.001599
2031.3991,0.001107
2033.2628,0.001518
2035.1265,0.002280
2036.9901,0.002699
2038.8538,0.002219
2040.7175,0.001147
2042.5811,0.001083
2044.4448,0.001916
2046.3085,0.001972
2048.1721,0.001840
2050.0358,0.002382
2051.8995,0.001813
2053.7631,0.000375
2055.6268,0.000150
2057.4905,0.000396
2059.3542,0.000155
2061.2178,0.000252
2063.0815,0.000438
2064.9452,0.000315
2066.8088,0.000007
2068.6725,-0.000573
2070.5362,-0.001121
2072.3998,-0.000881
2074.2635,-0.000248
2076.1272,-0.000698
2077.9908,-0.001317
2079.8545,-0.001297
2081.7182,-0.001538
2083.5819,-0.002039
2085.4455,-0.001821
2087.3092,-0.001381
2089.1729,-0.001288
2091.0365,-0.001458
2092.9002,-0.001893
2094.7639,-0.001897
2096.6275,-0.001175
2098.4912,-0.001230
2100.3549,-0.001849
2102.2185,-0.001911
2104.0822,-0.001701
2105.9459,-0.001683
2107.8095,-0.001962
2109.6732,-0.002211
2111.5369,-0.002346
2113.4006,-0.002541
2115.2642,-0.002524
2117.1279,-0.001775
2118.9916,-0.001419
2120.8552,-0.002341
2122.7189,-0.002550
2124.5826,-0.002195
2126.4462,-0.002707
2128.3099,-0.003215
2130.1736,-0.003194
2132.0372,-0.002526
2133.9009,-0.001733
2135.7646,-0.001988
2137.6282,-0.002388
2139.4919,-0.001805
2141.3556,-0.001050
2143.2193,-0.000812
2145.0829,-0.001129
2146.9466,-0.001719
2148.8103,-0.000790
2150.6739,0.001226
2152.5376,0.001754
2154.4013,0.001466
2156.2649,0.001028
2158.1286,0.001159
2159.9923,0.002575
2161.8559,0.003305
2163.7196,0.002775
2165.5833,0.002379
2167.4470,0.002684
2169.3106,0.002152
2171.1743,0.000916
2173.0380,0.000375
2174.9016,0.000038
2176.7653,0.000402
2178.6290,0.000783
2180.4926,0.000435
2182.3563,0.001010
2184.2200,0.001404
2186.0836,0.001227
2187.9473,0.000779
2189.8110,0.000562
2191.6746,0.001301
2193.5383,0.001165
2195.4020,0.000078
2197.2657,0.000337
2199.1293,0.000860
2200.9930,0.000607
2202.8567,0.001410
2204.7203,0.001473
2206.5840,-0.000039
2208.4477,-0.000535
2210.3113,0.000367
2212.1750,0.000456
2214.0387,-0.000576
2215.9023,-0.000471
2217.7660,-0.000390
2219.6297,-0.001131
2221.4934,-0.000928
2223.3570,-0.000476
2225.2207,-0.000552
2227.0844,-0.000660
2228.9480,-0.000871
2230.8117,-0.001093
2232.6754,-0.000681
2234.5390,-0.000374
2236.4027,-0.000803
2238.2664,-0.000516
2240.1300,0.000194
2241.9937,-0.000119
2243.8574,-0.001061
2245.7210,-0.001354
2247.5847,-0.001140
2249.4484,-0.001475
2251.3121,-0.001993
2253.1757,-0.001702
2255.0394,-0.001117
2256.9031,-0.001049
2258.7667,-0.001272
2260.6304,-0.001591
2262.4941,-0.001210
2264.3577,-0.000551
2266.2214,-0.000548
2268.0851,-0.000982
2269.9487,-0.001406
2271.8124,-0.001415
2273.6761,-0.001432
2275.5397,-0.001536
2277.4034,-0.001504
2279.2671,-0.001430
2281.1308,-0.001407
2282.9944,-0.001285
2284.8581,-0.001353
2286.7218,-0.001769
2288.5854,-0.001916
2290.4491,-0.001704
2292.3128,-0.001824
2294.1764,-0.002135
2296.0401,-0.002218
2297.9038,-0.002280
2299.7674,-0.002258
2301.6311,-0.002406
2303.4948,-0.002480
2305.3585,-0.002324
2307.2221,-0.002613
2309.0858,-0.002770
2310.9495,-0.002394
2312.8131,-0.002389
2314.6768,-0.002642
2316.5405,-0.002647
2318.4041,-0.002206
2320.2678,-0.001677
2322.1315,-0.001368
2323.9951,-0.001546
2325.8588,-0.002215
2327.7225,-0.002637
2329.5861,-0.002739
2331.4498,-0.003046
2333.3135,-0.003407
2335.1772,-0.003200
2337.0408,-0.002900
2338.9045,-0.002677
2340.7682,-0.002650
2342.6318,-0.002684
2344.4955,-0.002416
2346.3592,-0.002155
2348.2228,-0.002477
2350.0865,-0.003362
2351.9502,-0.003714
2353.8138,-0.002984
2355.6775,-0.002208
2357.5412,-0.001983
2359.4049,-0.001747
2361.2685,-0.001545
2363.1322,-0.001798
2364.9959,-0.001784
2366.8595,-0.001849
2368.7232,-0.001913
2370.5869,-0.001718
2372.4505,-0.001621
2374.3142,-0.001870
2376.1779,-0.002235
2378.0415,-0.002404
2379.9052,-0.002604
2381.7689,-0.002751
2383.6325,-0.002654
2385.4962,-0.002619
2387.3599,-0.002713
2389.2236,-0.002771
2391.0872,-0.002754
2392.9509,-0.002616
2394.8146,-0.002651
2396.6782,-0.002735
2398.5419,-0.002454
2400.4056,-0.002329
2402.2692,-0.002483
2404.1329,-0.002554
2405.9966,-0.002505
2407.8602,-0.002403
2409.7239,-0.002391
2411.5876,-0.002209
2413.4512,-0.002098
2415.3149,-0.002036
2417.1786,-0.002034
2419.0423,-0.002284
2420.9059,-0.002399
2422.7696,-0.002065
2424.6333,-0.001685
2426.4969,-0.001734
2428.3606,-0.001935
2430.2243,-0.001825
2432.0879,-0.001516
2433.9516,-0.001439
2435.8153,-0.001740
2437.6789,-0.001489
2439.5426,-0.001043
2441.4063,-0.001260
2443.2700,-0.001617
2445.1336,-0.001488
2446.9973,-0.001158
2448.8610,-0.001391
2450.7246,-0.001857
2452.5883,-0.001520
2454.4520,-0.001056
2456.3156,-0.001534
2458.1793,-0.001906
2460.0430,-0.001712
2461.9066,-0.001280
2463.7703,-0.001034
2465.6340,-0.001298
2467.4976,-0.001659
2469.3613,-0.001769
2471.2250,-0.001714
2473.0887,-0.001505
2474.9523,-0.001327
2476.8160,-0.001390
2478.6797,-0.001298
2480.5433,-0.001153
2482.4070,-0.001502
2484.2707,-0.001649
2486.1343,-0.001228
2487.9980,-0.001105
2489.8617,-0.001198
2491.7253,-0.001179
2493.5890,-0.001296
2495.4527,-0.001372
2497.3164,-0.001320
2499.1800,-0.001188
2501.0437,-0.001083
2502.9074,-0.001206
2504.7710,-0.001151
2506.6347,-0.000824
2508.4984,-0.000943
2510.3620,-0.000941
2512.2257,-0.000961
2514.0894,-0.001132
2515.9530,-0.000921
2517.8167,-0.000798
2519.6804,-0.000959
2521.5440,-0.001061
2523.4077,-0.000943
2525.2714,-0.000781
2527.1351,-0.000862
2528.9987,-0.001200
2530.8624,-0.001223
2532.7261,-0.001039
2534.5897,-0.001195
2536.4534,-0.001293
2538.3171,-0.000742
2540.1807,-0.000404
2542.0444,-0.000796
2543.9081,-0.000767
2545.7717,-0.000437
2547.6354,-0.000595
2549.4991,-0.000559
2551.3627,-0.000466
2553.2264,-0.000706
2555.0901,-0.000735
2556.9538,-0.000669
2558.8174,-0.000725
2560.6811,-0.000632
2562.5448,-0.000856
2564.4084,-0.000889
2566.2721,-0.000472
2568.1358,-0.000382
2569.9994,-0.000283
2571.8631,-0.000228
2573.7268,-0.000278
2575.5904,-0.000380
2577.4541,-0.000538
2579.3178,-0.000654
2581.1815,-0.000225
2583.0451,-0.000202
2584.9088,-0.000489
2586.7725,-0.000141
2588.6361,-0.000056
2590.4998,-0.000324
2592.3635,-0.000226
2594.2271,-0.000144
2596.0908,-0.000016
2597.9545,-0.000067
2599.8181,-0.000346
2601.6818,-0.000460
2603.5455,-0.000436
2605.4091,-0.000287
2607.2728,-0.000006
2609.1365,-0.000165
2611.0002,-0.000464
2612.8638,-0.000282
2614.7275,-0.000205
2616.5912,-0.000233
2618.4548,-0.000195
2620.3185,-0.000200
2622.1822,-0.000140
2624.0458,-0.000224
2625.9095,-0.000128
2627.7732,0.000120
2629.6368,-0.000060
2631.5005,-0.000308
2633.3642,-0.000171
2635.2279,-0.000290
2637.0915,-0.000416
2638.9552,-0.000250
2640.8189,-0.000129
2642.6825,-0.000198
2644.5462,-0.000201
2646.4099,0.000075
2648.2735,-0.000053
2650.1372,-0.000304
2652.0009,-0.000174
2653.8645,-0.000013
2655.7282,-0.000025
2657.5919,-0.000153
2659.4555,-0.000282
2661.3192,-0.000344
2663.1829,-0.000337
2665.0466,-0.000416
2666.9102,-0.000498
2668.7739,-0.000566
2670.6376,-0.000532
2672.5012,-0.000446
2674.3649,-0.000385
2676.2286,-0.000289
2678.0922,-0.000198
2679.9559,-0.000284
2681.8196,-0.000268
2683.6832,-0.000178
2685.5469,-0.000154
2687.4106,-0.000208
2689.2742,-0.000185
2691.1379,-0.000130
2693.0016,-0.000091
2694.8653,-0.000066
2696.7289,0.000008
2698.5926,-0.000013
2700.4563,0.000029
2702.3199,0.000119
2704.1836,-0.000002
2706.0473,0.000063
2707.9109,0.000151
2709.7746,0.000195
2711.6383,0.000293
2713.5019,0.000269
2715.3656,0.000227
2717.2293,0.000271
2719.0930,0.000336
2720.9566,0.000401
2722.8203,0.000314
2724.6840,0.000396
2726.5476,0.000618
2728.4113,0.000682
2730.2750,0.000699
2732.1386,0.000778
2734.0023,0.000887
2735.8660,0.000889
2737.7296,0.000854
2739.5933,0.000919
2741.4570,0.001037
2743.3206,0.001003
2745.1843,0.001094
2747.0480,0.001231
2748.9117,0.001163
2750.7753,0.001068
2752.6390,0.001179
2754.5027,0.001293
2756.3663,0.001352
2758.2300,0.001272
2760.0937,0.001326
2761.9573,0.001496
2763.8210,0.001595
2765.6847,0.001645
2767.5483,0.001735
2769.4120,0.001804
2771.2757,0.001850
2773.1394,0.001917
2775.0030,0.001903
2776.8667,0.001873
2778.7304,0.001916
2780.5940,0.002023
2782.4577,0.002218
2784.3214,0.002457
2786.1850,0.002574
2788.0487,0.002383
2789.9124,0.002101
2791.7760,0.002387
2793.6397,0.002577
2795.5034,0.002539
2797.3670,0.002673
2799.2307,0.002965
2801.0944,0.003039
2802.9581,0.003037
2804.8217,0.003072
2806.6854,0.003080
2808.5491,0.003173
2810.4127,0.003146
2812.2764,0.003161
2814.1401,0.003363
2816.0037,0.003606
2817.8674,0.003787
2819.7311,0.003658
2821.5947,0.003633
2823.4584,0.003900
2825.3221,0.004061
2827.1857,0.004227
2829.0494,0.004150
2830.9131,0.004091
2832.7768,0.004338
2834.6404,0.004575
2836.5041,0.004747
2838.3678,0.005084
2840.2314,0.005534
2842.0951,0.005919
2843.9588,0.006204
2845.8224,0.006659
2847.6861,0.007170
2849.5498,0.007399
2851.4134,0.007748
2853.2771,0.008123
2855.1408,0.007953
2857.0045,0.007651
2858.8681,0.007401
2860.7318,0.007359
2862.5955,0.007411
2864.4591,0.007230
2866.3228,0.007272
2868.1865,0.007533
2870.0501,0.007694
2871.9138,0.007956
2873.7775,0.008030
2875.6411,0.007802
2877.5048,0.007881
2879.3685,0.008072
2881.2321,0.007907
2883.0958,0.007789
2884.9595,0.007750
2886.8232,0.007755
2888.6868,0.007845
2890.5505,0.008043
2892.4142,0.008229
2894.2778,0.008199
2896.1415,0.008361
2898.0052,0.008812
2899.8688,0.008853
2901.7325,0.008852
2903.5962,0.009002
2905.4598,0.009235
2907.3235,0.009703
2909.1872,0.010160
2911.0509,0.010451
2912.9145,0.010672
2914.7782,0.010928
2916.6419,0.011218
2918.5055,0.011724
2920.3692,0.012023
2922.2329,0.012195
2924.0965,0.012220
2925.9602,0.012093
2927.8239,0.011824
2929.6875,0.011358
2931.5512,0.011185
2933.4149,0.011223
2935.2785,0.010984
2937.1422,0.010745
2939.0059,0.010343
2940.8696,0.009950
2942.7332,0.009640
2944.5969,0.009407
2946.4606,0.009229
2948.3242,0.009168
2950.1879,0.009207
2952.0516,0.009241
2953.9152,0.009235
2955.7789,0.009231
2957.6426,0.009185
2959.5062,0.009196
2961.3699,0.009066
2963.2336,0.008838
2965.0972,0.008702
2966.9609,0.008506
2968.8246,0.008449
2970.6883,0.008197
2972.5519,0.007863
2974.4156,0.007532
2976.2793,0.007370
2978.1429,0.007530
2980.0066,0.007262
2981.8703,0.006590
2983.7339,0.006493
2985.5976,0.006190
2987.4613,0.006012
2989.3249,0.006209
2991.1886,0.006006
2993.0523,0.005772
2994.9160,0.005560
2996.7796,0.005450
2998.6433,0.005521
3000.5070,0.005675
3002.3706,0.005653
3004.2343,0.005707
3006.0980,0.005786
3007.9616,0.005816
3009.8253,0.005779
3011.6890,0.005785
3013.5526,0.005860
3015.4163,0.006092
3017.2800,0.006098
3019.1436,0.005900
3021.0073,0.005971
3022.8710,0.005956
3024.7347,0.006204
3026.5983,0.006181
3028.4620,0.006017
3030.3257,0.006370
3032.1893,0.006708
3034.0530,0.006946
3035.9167,0.006872
3037.7803,0.006850
3039.6440,0.007099
3041.5077,0.007107
3043.3713,0.007080
3045.2350,0.007255
3047.0987,0.007169
3048.9624,0.007213
3050.8260,0.007077
3052.6897,0.007151
3054.5534,0.007597
3056.4170,0.007797
3058.2807,0.007790
3060.1444,0.007851
3062.0080,0.008022
3063.8717,0.008028
3065.7354,0.007942
3067.5990,0.007879
3069.4627,0.007915
3071.3264,0.008036
3073.1900,0.008230
3075.0537,0.008201
3076.9174,0.007878
3078.7811,0.007787
3080.6447,0.008162
3082.5084,0.008311
3084.3721,0.008006
3086.2357,0.007601
3088.0994,0.007620
3089.9631,0.008179
3091.8267,0.008130
3093.6904,0.008002
3095.5541,0.008145
3097.4177,0.007979
3099.2814,0.007716
3101.1451,0.007971
3103.0087,0.007972
3104.8724,0.007938
3106.7361,0.007922
3108.5998,0.007759
3110.4634,0.007849
3112.3271,0.007598
3114.1908,0.007622
3116.0544,0.007756
3117.9181,0.008063
3119.7818,0.008655
3121.6454,0.008487
3123.5091,0.008208
3125.3728,0.008372
3127.2364,0.008269
3129.1001,0.008228
3130.9638,0.008186
3132.8275,0.008471
3134.6911,0.008551
3136.5548,0.008877
3138.4185,0.009069
3140.2821,0.008923
3142.1458,0.009022
3144.0095,0.009093
3145.8731,0.009260
3147.7368,0.009422
3149.6005,0.009551
3151.4641,0.009656
3153.3278,0.009742
3155.1915,0.009727
3157.0551,0.009996
3158.9188,0.010164
3160.7825,0.010081
3162.6462,0.010254
3164.5098,0.010783
3166.3735,0.010873
3168.2372,0.010651
3170.1008,0.010840
3171.9645,0.010908
3173.8282,0.010922
3175.6918,0.011043
3177.5555,0.011333
3179.4192,0.011569
3181.2828,0.011676
3183.1465,0.011872
3185.0102,0.011823
3186.8739,0.011555
3188.7375,0.011689
3190.6012,0.012013
3192.4649,0.012220
3194.3285,0.012047
3196.1922,0.011967
3198.0559,0.012306
3199.9195,0.012457
3201.7832,0.012618
3203.6469,0.012659
3205.5105,0.012538
3207.3742,0.012606
3209.2379,0.012447
3211.1015,0.012426
3212.9652,0.012872
3214.8289,0.013048
3216.6926,0.012853
3218.5562,0.012832
3220.4199,0.013159
3222.2836,0.013239
3224.1472,0.013220
3226.0109,0.013338
3227.8746,0.013575
3229.7382,0.013885
3231.6019,0.013961
3233.4656,0.013760
3235.3292,0.013648
3237.1929,0.013735
3239.0566,0.013860
3240.9202,0.014019
3242.7839,0.014349
3244.6476,0.014430
3246.5113,0.014589
3248.3749,0.014770
3250.2386,0.014952
3252.1023,0.015227
3253.9659,0.015208
3255.8296,0.015194
3257.6933,0.015202
3259.5569,0.014936
3261.4206,0.015118
3263.2843,0.015507
3265.1479,0.015526
3267.0116,0.015385
3268.8753,0.015859
3270.7390,0.016029
3272.6026,0.015952
3274.4663,0.016051
3276.3300,0.016045
3278.1936,0.015895
3280.0573,0.015819
3281.9210,0.015468
3283.7846,0.015298
3285.6483,0.015585
3287.5120,0.016069
3289.3756,0.015970
3291.2393,0.015777
3293.1030,0.015593
3294.9666,0.015336
3296.8303,0.015400
3298.6940,0.015279
3300.5577,0.014732
3302.4213,0.014589
3304.2850,0.014881
3306.1487,0.014773
3308.0123,0.014605
3309.8760,0.014523
3311.7397,0.014429
3313.6033,0.014267
3315.4670,0.014075
3317.3307,0.014250
3319.1943,0.014450
3321.0580,0.013941
3322.9217,0.013168
3324.7854,0.013282
3326.6490,0.013157
3328.5127,0.012913
3330.3764,0.013278
3332.2400,0.013259
3334.1037,0.012987
3335.9674,0.012722
3337.8310,0.012580
3339.6947,0.012415
3341.5584,0.012351
3343.4220,0.012184
3345.2857,0.012123
3347.1494,0.012285
3349.0130,0.012135
3350.8767,0.011557
3352.7404,0.011302
3354.6041,0.011571
3356.4677,0.011275
3358.3314,0.011162
3360.1951,0.011144
3362.0587,0.010801
3363.9224,0.010592
3365.7861,0.010718
3367.6497,0.010645
3369.5134,0.010396
3371.3771,0.009864
3373.2407,0.009604
3375.1044,0.009919
3376.9681,0.010119
3378.8317,0.010209
3380.6954,0.010210
3382.5591,0.009957
3384.4228,0.009814
3386.2864,0.009617
3388.1501,0.009104
3390.0138,0.009048
3391.8774,0.009438
3393.7411,0.009224
3395.6048,0.008991
3397.4684,0.009045
3399.3321,0.008816
3401.1958,0.008648
3403.0594,0.008330
3404.9231,0.008055
3406.7868,0.008048
3408.6505,0.008306
3410.5141,0.008316
3412.3778,0.008362
3414.2415,0.008555
3416.1051,0.008174
3417.9688,0.007760
3419.8325,0.007274
3421.6961,0.007133
3423.5598,0.007024
3425.4235,0.007114
3427.2871,0.007719
3429.1508,0.007511
3431.0145,0.006384
3432.8781,0.005760
3434.7418,0.005862
3436.6055,0.006359
3438.4692,0.006388
3440.3328,0.006143
3442.1965,0.005737
3444.0602,0.005821
3445.9238,0.006075
3447.7875,0.005645
3449.6512,0.005237
3451.5148,0.005106
3453.3785,0.005218
3455.2422,0.005420
3457.1058,0.005116
3458.9695,0.004759
3460.8332,0.004756
3462.6969,0.004471
3464.5605,0.004075
3466.4242,0.003905
3468.2879,0.003828
3470.1515,0.003638
3472.0152,0.003385
3473.8789,0.003515
3475.7425,0.003992
3477.6062,0.004056
3479.4699,0.003454
3481.3335,0.002826
3483.1972,0.002326
3485.0609,0.002712
3486.9245,0.002868
3488.7882,0.001889
3490.6519,0.001460
3492.5156,0.001650
3494.3792,0.001860
3496.2429,0.001713
3498.1066,0.001616
3499.9702,0.001911
3501.8339,0.001595
3503.6976,0.001369
3505.5612,0.001374
3507.4249,0.000728
3509.2886,0.000079
3511.1522,-0.000050
3513.0159,0.000344
3514.8796,0.000795
3516.7432,0.000859
3518.6069,0.000654
3520.4706,0.000247
3522.3343,-0.000013
3524.1979,-0.000168
3526.0616,-0.000063
3527.9253,0.000382
3529.7889,0.000249
3531.6526,-0.000607
3533.5163,-0.001338
3535.3799,-0.001290
3537.2436,-0.000840
3539.1073,-0.000892
3540.9709,-0.001395
3542.8346,-0.001619
3544.6983,-0.001409
3546.5620,-0.001329
3548.4256,-0.001183
3550.2893,-0.001242
3552.1530,-0.001853
3554.0166,-0.002356
3555.8803,-0.002592
3557.7440,-0.002512
3559.6076,-0.002567
3561.4713,-0.003159
3563.3350,-0.003121
3565.1986,-0.002401
3567.0623,-0.001834
3568.9260,-0.001947
3570.7896,-0.002471
3572.6533,-0.002721
3574.5170,-0.003101
3576.3807,-0.003804
3578.2443,-0.003808
3580.1080,-0.002937
3581.9717,-0.003163
3583.8353,-0.003791
3585.6990,-0.003580
3587.5627,-0.003686
3589.4263,-0.003891
3591.2900,-0.004409
3593.1537,-0.005077
3595.0173,-0.005180
3596.8810,-0.005393
3598.7447,-0.005184
3600.6084,-0.004226
3602.4720,-0.003923
3604.3357,-0.004418
3606.1994,-0.004788
3608.0630,-0.005000
3609.9267,-0.005078
3611.7904,-0.005079
3613.6540,-0.005158
3615.5177,-0.005302
3617.3814,-0.005465
3619.2450,-0.005751
3621.1087,-0.005540
3622.9724,-0.005150
3624.8360,-0.005591
3626.6997,-0.006287
3628.5634,-0.006528
3630.4271,-0.006149
3632.2907,-0.005815
3634.1544,-0.005703
3636.0181,-0.005687
3637.8817,-0.005957
3639.7454,-0.005894
3641.6091,-0.005825
3643.4727,-0.005974
3645.3364,-0.005841
3647.2001,-0.006284
3649.0637,-0.007051
3650.9274,-0.006679
3652.7911,-0.006383
3654.6547,-0.006766
3656.5184,-0.006760
3658.3821,-0.006222
3660.2458,-0.006013
3662.1094,-0.006231
3663.9731,-0.006482
3665.8368,-0.006714
3667.7004,-0.007137
3669.5641,-0.007146
3671.4278,-0.006528
3673.2914,-0.006311
3675.1551,-0.007220
3677.0188,-0.007551
3678.8824,-0.006878
3680.7461,-0.006611
3682.6098,-0.006511
3684.4735,-0.006810
3686.3371,-0.007271
3688.2008,-0.007247
3690.0645,-0.007030
3691.9281,-0.007123
3693.7918,-0.007015
3695.6555,-0.006719
3697.5191,-0.006859
3699.3828,-0.007422
3701.2465,-0.007449
3703.1101,-0.007000
3704.9738,-0.006942
3706.8375,-0.007255
3708.7011,-0.007450
3710.5648,-0.007241
3712.4285,-0.007038
3714.2922,-0.006723
3716.1558,-0.006504
3718.0195,-0.006778
3719.8832,-0.007052
3721.7468,-0.006998
3723.6105,-0.007117
3725.4742,-0.007248
3727.3378,-0.006890
3729.2015,-0.006730
3731.0652,-0.007276
3732.9288,-0.007582
3734.7925,-0.007437
3736.6562,-0.007013
3738.5199,-0.006569
3740.3835,-0.007096
3742.2472,-0.007464
3744.1109,-0.006977
3745.9745,-0.006417
3747.8382,-0.006545
3749.7019,-0.007369
3751.5655,-0.007817
3753.4292,-0.007192
3755.2929,-0.006746
3757.1565,-0.006832
3759.0202,-0.007180
3760.8839,-0.007203
3762.7475,-0.006920
3764.6112,-0.006845
3766.4749,-0.006760
3768.3386,-0.006870
3770.2022,-0.007072
3772.0659,-0.006780
3773.9296,-0.006635
3775.7932,-0.007174
3777.6569,-0.007514
3779.5206,-0.007291
3781.3842,-0.007039
3783.2479,-0.006929
3785.1116,-0.007083
3786.9752,-0.007234
3788.8389,-0.007204
3790.7026,-0.007165
3792.5662,-0.007010
3794.4299,-0.006797
3796.2936,-0.007005
3798.1573,-0.007360
3800.0209,-0.007296
3801.8846,-0.007260
3803.7483,-0.007054
3805.6119,-0.006960
3807.4756,-0.007261
3809.3393,-0.007231
3811.2029,-0.007399
3813.0666,-0.007708
3814.9303,-0.007774
3816.7939,-0.007733
3818.6576,-0.007151
3820.5213,-0.006860
3822.3850,-0.007210
3824.2486,-0.007069
3826.1123,-0.006988
3827.9760,-0.007303
3829.8396,-0.007220
3831.7033,-0.007325
3833.5670,-0.007541
3835.4306,-0.007236
3837.2943,-0.007160
3839.1580,-0.007068
3841.0216,-0.006862
3842.8853,-0.006930
3844.7490,-0.007018
3846.6126,-0.007258
3848.4763,-0.007694
3850.3400,-0.007689
3852.2037,-0.007952
3854.0673,-0.008233
3855.9310,-0.007062
3857.7947,-0.006643
3859.6583,-0.007179
3861.5220,-0.007478
3863.3857,-0.007440
3865.2493,-0.007149
3867.1130,-0.006782
3868.9767,-0.006895
3870.8403,-0.007219
3872.7040,-0.006973
3874.5677,-0.007170
3876.4314,-0.007411
3878.2950,-0.007258
3880.1587,-0.007525
3882.0224,-0.007697
3883.8860,-0.007159
3885.7497,-0.006863
3887.6134,-0.006745
3889.4770,-0.006854
3891.3407,-0.007100
3893.2044,-0.006990
3895.0680,-0.006903
3896.9317,-0.007248
3898.7954,-0.007285
3900.6590,-0.007029
3902.5227,-0.007060
3904.3864,-0.007048
3906.2501,-0.007054
3908.1137,-0.006861
3909.9774,-0.006648
3911.8411,-0.006838
3913.7047,-0.006919
3915.5684,-0.007085
3917.4321,-0.007299
3919.2957,-0.007300
3921.1594,-0.007355
3923.0231,-0.007431
3924.8867,-0.007359
3926.7504,-0.007113
3928.6141,-0.006968
3930.4777,-0.007159
3932.3414,-0.007338
3934.2051,-0.007090
3936.0688,-0.006903
3937.9324,-0.007090
3939.7961,-0.007063
3941.6598,-0.007168
3943.5234,-0.007148
3945.3871,-0.006873
3947.2508,-0.006801
3949.1144,-0.006902
3950.9781,-0.006843
3952.8418,-0.007093
3954.7054,-0.007205
3956.5691,-0.007068
3958.4328,-0.006920
3960.2965,-0.006816
3962.1601,-0.006952
3964.0238,-0.007153
3965.8875,-0.007108
3967.7511,-0.007099
3969.6148,-0.006983
3971.4785,-0.006849
3973.3421,-0.006821
3975.2058,-0.006658
3977.0695,-0.006745
3978.9331,-0.007083
3980.7968,-0.007144
3982.6605,-0.006980
3984.5241,-0.006775
3986.3878,-0.007048
3988.2515,-0.007172
3990.1152,-0.007189
3991.9788,-0.007118
3993.8425,-0.007054
3995.7062,-0.007036
3997.5698,-0.006848
3999.4335,-0.006758
