Wavenumber,Intensity
650.4205,0.015794
652.2841,0.014408
654.1478,0.011324
656.0115,0.013250
657.8751,0.014333
659.7388,0.011383
661.6025,0.009953
663.4661,0.011110
665.3298,0.010926
667.1935,0.009179
669.0571,0.008900
670.9208,0.010646
672.7845,0.011737
674.6481,0.011750
676.5118,0.009907
678.3755,0.008167
680.2392,0.007827
682.1028,0.008878
683.9665,0.009882
685.8302,0.008429
687.6938,0.007945
689.5575,0.008420
691.4212,0.008405
693.2848,0.008253
695.1485,0.007358
697.0122,0.006957
698.8758,0.007155
700.7395,0.007642
702.6032,0.007581
704.4669,0.006988
706.3305,0.006679
708.1942,0.005999
710.0579,0.005624
711.9215,0.005928
713.7852,0.006046
715.6489,0.005746
717.5125,0.005594
719.3762,0.005409
721.2399,0.004915
723.1035,0.005277
724.9672,0.005012
726.8309,0.003641
728.6945,0.003636
730.5582,0.004098
732.4219,0.003776
734.2856,0.003577
736.1492,0.003741
738.0129,0.003953
739.8766,0.004020
741.7402,0.004104
743.6039,0.004562
745.4676,0.004880
747.3312,0.004471
749.1949,0.004229
751.0586,0.004372
752.9222,0.004136
754.7859,0.003890
756.6496,0.003946
758.5132,0.004091
760.3769,0.003968
762.2406,0.004181
764.1043,0.004585
765.9679,0.004292
767.8316,0.004289
769.6953,0.004493
771.5589,0.004382
773.4226,0.004575
775.2863,0.004796
777.1499,0.004535
779.0136,0.004265
780.8773,0.004315
782.7409,0.004156
784.6046,0.003939
786.4683,0.004019
788.3320,0.003968
790.1956,0.003617
792.0593,0.003641
793.9230,0.004199
795.7866,0.004062
797.6503,0.003720
799.5140,0.004053
801.3776,0.004342
803.2413,0.004368
805.1050,0.004535
806.9686,0.004736
808.8323,0.004990
810.6960,0.005333
812.5596,0.005128
814.4233,0.004676
816.2870,0.004595
818.1507,0.004336
820.0143,0.004082
821.8780,0.004011
823.7417,0.003791
825.6053,0.003500
827.4690,0.003686
829.3327,0.003903
831.1963,0.003622
833.0600,0.003385
834.9237,0.003309
836.7873,0.003504
838.6510,0.003596
840.5147,0.003379
842.3784,0.003256
844.2420,0.003219
846.1057,0.003597
847.9694,0.004038
849.8330,0.003924
851.6967,0.003942
853.5604,0.004201
855.4240,0.004229
857.2877,0.004367
859.1514,0.004848
861.0150,0.005308
862.8787,0.005492
864.7424,0.005692
866.6060,0.005958
868.4697,0.006238
870.3334,0.006569
872.1971,0.006715
874.0607,0.006699
875.9244,0.006791
877.7881,0.006770
879.6517,0.006606
881.5154,0.006475
883.3791,0.006546
885.2427,0.006724
887.1064,0.006833
888.9701,0.007062
890.8337,0.007337
892.6974,0.007477
894.5611,0.007491
896.4247,0.007401
898.2884,0.007322
900.1521,0.007361
902.0158,0.007576
903.8794,0.007818
905.7431,0.007900
907.6068,0.008026
909.4704,0.008171
911.3341,0.008348
913.1978,0.008629
915.0614,0.008788
916.9251,0.008924
918.7888,0.009211
920.6524,0.009514
922.5161,0.009627
924.3798,0.009688
926.2435,0.009807
928.1071,0.009904
929.9708,0.010014
931.8345,0.010270
933.6981,0.010547
935.5618,0.010506
937.4255,0.010513
939.2891,0.010747
941.1528,0.010994
943.0165,0.011267
944.8801,0.011625
946.7438,0.011899
948.6075,0.011962
950.4711,0.012005
952.3348,0.012194
954.1985,0.012496
956.0622,0.012814
957.9258,0.013337
959.7895,0.013977
961.6532,0.014546
963.5168,0.015049
965.3805,0.015415
967.2442,0.015589
969.1078,0.015633
970.9715,0.015718
972.8352,0.015901
974.6988,0.016196
976.5625,0.016569
978.4262,0.017006
980.2899,0.017456
982.1535,0.017844
984.0172,0.018229
985.8809,0.018697
987.7445,0.019137
989.6082,0.019524
991.4719,0.019889
993.3355,0.020236
995.1992,0.020538
997.0629,0.020778
998.9265,0.021004
1000.7902,0.021289
1002.6539,0.021625
1004.5175,0.022061
1006.3812,0.022627
1008.2449,0.023333
1010.1086,0.024026
1011.9722,0.024596
1013.8359,0.025199
1015.6996,0.025834
1017.5632,0.026388
1019.4269,0.026730
1021.2906,0.026889
1023.1542,0.027021
1025.0179,0.027186
1026.8816,0.027295
1028.7452,0.027405
1030.6089,0.027531
1032.4726,0.027584
1034.3362,0.027669
1036.1999,0.027612
1038.0636,0.027429
1039.9273,0.027344
1041.7909,0.027121
1043.6546,0.026823
1045.5183,0.026722
1047.3819,0.026652
1049.2456,0.026637
1051.1093,0.026642
1052.9729,0.026584
1054.8366,0.026570
1056.7003,0.026534
1058.5639,0.026483
1060.4276,0.026399
1062.2913,0.026268
1064.1550,0.026197
1066.0186,0.026183
1067.8823,0.026104
1069.7460,0.025954
1071.6096,0.025648
1073.4733,0.025118
1075.3370,0.024589
1077.2006,0.024171
1079.0643,0.023626
1080.9280,0.022892
1082.7916,0.022162
1084.6553,0.021532
1086.5190,0.020898
1088.3826,0.020289
1090.2463,0.019903
1092.1100,0.019541
1093.9737,0.019093
1095.8373,0.018804
1097.7010,0.018598
1099.5647,0.018321
1101.4283,0.018029
1103.2920,0.017922
1105.1557,0.017970
1107.0193,0.017937
1108.8830,0.017884
1110.7467,0.017794
1112.6103,0.017705
1114.4740,0.017713
1116.3377,0.017666
1118.2014,0.017495
1120.0650,0.017241
1121.9287,0.017008
1123.7924,0.016795
1125.6560,0.016627
1127.5197,0.016539
1129.3834,0.016485
1131.2470,0.016344
1133.1107,0.016174
1134.9744,0.016121
1136.8380,0.015996
1138.7017,0.015824
1140.5654,0.015824
1142.4290,0.015978
1144.2927,0.016140
1146.1564,0.016245
1148.0201,0.016396
1149.8837,0.016577
1151.7474,0.016764
1153.6111,0.016910
1155.4747,0.016894
1157.3384,0.016847
1159.2021,0.016791
1161.0657,0.016618
1162.9294,0.016479
1164.7931,0.016327
1166.6567,0.015989
1168.5204,0.015593
1170.3841,0.015235
1172.2477,0.014775
1174.1114,0.014169
1175.9751,0.013682
1177.8388,0.013375
1179.7024,0.013082
1181.5661,0.012867
1183.4298,0.012958
1185.2934,0.013160
1187.1571,0.013242
1189.0208,0.013304
1190.8844,0.013448
1192.7481,0.013759
1194.6118,0.014218
1196.4754,0.014610
1198.3391,0.015009
1200.2028,0.015393
1202.0665,0.015793
1203.9301,0.016158
1205.7938,0.016417
1207.6575,0.016569
1209.5211,0.016685
1211.3848,0.016863
1213.2485,0.017069
1215.1121,0.017342
1216.9758,0.017634
1218.8395,0.017913
1220.7031,0.018125
1222.5668,0.018276
1224.4305,0.018498
1226.2941,0.018713
1228.1578,0.018880
1230.0215,0.018959
1231.8852,0.019067
1233.7488,0.019181
1235.6125,0.019147
1237.4762,0.019077
1239.3398,0.018976
1241.2035,0.018808
1243.0672,0.018692
1244.9308,0.018591
1246.7945,0.018395
1248.6582,0.018126
1250.5218,0.017852
1252.3855,0.017607
1254.2492,0.017443
1256.1129,0.017336
1257.9765,0.017227
1259.8402,0.017111
1261.7039,0.016918
1263.5675,0.016762
1265.4312,0.016707
1267.2949,0.016634
1269.1585,0.016494
1271.0222,0.016361
1272.8859,0.016269
1274.7495,0.016147
1276.6132,0.015929
1278.4769,0.015695
1280.3405,0.015613
1282.2042,0.015611
1284.0679,0.015509
1285.9316,0.015344
1287.7952,0.015268
1289.6589,0.015255
1291.5226,0.015276
1293.3862,0.015315
1295.2499,0.015406
1297.1136,0.015456
1298.9772,0.015510
1300.8409,0.015651
1302.7046,0.015831
1304.5682,0.016030
1306.4319,0.016184
1308.2956,0.016239
1310.1592,0.016237
1312.0229,0.016289
1313.8866,0.016268
1315.7503,0.016078
1317.6139,0.015911
1319.4776,0.015872
1321.3413,0.015817
1323.2049,0.015724
1325.0686,0.015803
1326.9323,0.015813
1328.7959,0.015603
1330.6596,0.015547
1332.5233,0.015761
1334.3869,0.015818
1336.2506,0.015609
1338.1143,0.015602
1339.9780,0.015892
1341.8416,0.016008
1343.7053,0.016091
1345.5690,0.016131
1347.4326,0.015956
1349.2963,0.015831
1351.1600,0.015737
1353.0236,0.015610
1354.8873,0.015609
1356.7510,0.015691
1358.6146,0.015710
1360.4783,0.015895
1362.3420,0.016539
1364.2056,0.017168
1366.0693,0.017297
1367.9330,0.017529
1369.7967,0.017820
1371.6603,0.017957
1373.5240,0.018339
1375.3877,0.018719
1377.2513,0.018756
1379.1150,0.018837
1380.9787,0.018890
1382.8423,0.018659
1384.7060,0.018438
1386.5697,0.018791
1388.4333,0.019222
1390.2970,0.018886
1392.1607,0.018627
1394.0244,0.018919
1395.8880,0.019343
1397.7517,0.019314
1399.6154,0.019380
1401.4790,0.019249
1403.3427,0.019102
1405.2064,0.019256
1407.0700,0.019285
1408.9337,0.019150
1410.7974,0.019149
1412.6610,0.018881
1414.5247,0.018432
1416.3884,0.018077
1418.2520,0.018458
1420.1157,0.019036
1421.9794,0.018616
1423.8431,0.018592
1425.7067,0.018762
1427.5704,0.018665
1429.4341,0.019062
1431.2977,0.019323
1433.1614,0.019068
1435.0251,0.019116
1436.8887,0.020019
1438.7524,0.020223
1440.6161,0.019875
1442.4797,0.019604
1444.3434,0.019276
1446.2071,0.019166
1448.0707,0.019275
1449.9344,0.019036
1451.7981,0.018284
1453.6618,0.017426
1455.5254,0.017066
1457.3891,0.017785
1459.2528,0.017502
1461.1164,0.016495
1462.9801,0.015688
1464.8438,0.015447
1466.7074,0.015252
1468.5711,0.014417
1470.4348,0.013514
1472.2984,0.013390
1474.1621,0.013319
1476.0258,0.012983
1477.8895,0.012792
1479.7531,0.012673
1481.6168,0.012725
1483.4805,0.012799
1485.3441,0.012866
1487.2078,0.013251
1489.0715,0.014208
1490.9351,0.015259
1492.7988,0.015402
1494.6625,0.015541
1496.5261,0.016883
1498.3898,0.018128
1500.2535,0.018503
1502.1171,0.018286
1503.9808,0.018094
1505.8445,0.019538
1507.7082,0.022008
1509.5718,0.021915
1511.4355,0.021858
1513.2992,0.021909
1515.1628,0.021843
1517.0265,0.022027
1518.8902,0.022173
1520.7538,0.022419
1522.6175,0.022859
1524.4812,0.022629
1526.3448,0.022554
1528.2085,0.022491
1530.0722,0.022305
1531.9359,0.022215
1533.7995,0.022335
1535.6632,0.021553
1537.5269,0.020711
1539.3905,0.021270
1541.2542,0.021887
1543.1179,0.021327
1544.9815,0.020616
1546.8452,0.019740
1548.7089,0.019014
1550.5725,0.018512
1552.4362,0.017790
1554.2999,0.016942
1556.1635,0.016080
1558.0272,0.015936
1559.8909,0.016575
1561.7546,0.015524
1563.6182,0.014478
1565.4819,0.013928
1567.3456,0.013601
1569.2092,0.013454
1571.0729,0.013278
1572.9366,0.012558
1574.8002,0.012218
1576.6639,0.012773
1578.5276,0.012660
1580.3912,0.012207
1582.2549,0.012175
1584.1186,0.012114
1585.9822,0.012186
1587.8459,0.012330
1589.7096,0.012250
1591.5733,0.012263
1593.4369,0.012501
1595.3006,0.012659
1597.1643,0.012701
1599.0279,0.012853
1600.8916,0.013003
1602.7553,0.013178
1604.6189,0.013207
1606.4826,0.013246
1608.3463,0.013650
1610.2099,0.013902
1612.0736,0.013970
1613.9373,0.014228
1615.8010,0.014965
1617.6646,0.016016
1619.5283,0.016138
1621.3920,0.016119
1623.2556,0.016506
1625.1193,0.016796
1626.9830,0.017156
1628.8466,0.017940
1630.7103,0.017890
1632.5740,0.017161
1634.4376,0.017371
1636.3013,0.018569
1638.1650,0.018163
1640.0286,0.017565
1641.8923,0.017097
1643.7560,0.016540
1645.6197,0.016413
1647.4833,0.016342
1649.3470,0.015594
1651.2107,0.015064
1653.0743,0.016136
1654.9380,0.016445
1656.8017,0.015531
1658.6653,0.014842
1660.5290,0.014343
1662.3927,0.013966
1664.2563,0.013465
1666.1200,0.012587
1667.9837,0.011780
1669.8474,0.011282
1671.7110,0.010842
1673.5747,0.010202
1675.4384,0.009709
1677.3020,0.009221
1679.1657,0.008341
1681.0294,0.007185
1682.8930,0.006085
1684.7567,0.005797
1686.6204,0.005471
1688.4840,0.004815
1690.3477,0.004058
1692.2114,0.003141
1694.0750,0.001920
1695.9387,0.000880
1697.8024,0.000117
1699.6661,-0.000808
1701.5297,-0.001308
1703.3934,-0.002065
1705.2571,-0.002930
1707.1207,-0.003346
1708.9844,-0.003489
1710.8481,-0.003688
1712.7117,-0.004111
1714.5754,-0.004609
1716.4391,-0.004921
1718.3027,-0.004812
1720.1664,-0.004651
1722.0301,-0.004760
1723.8937,-0.004769
1725.7574,-0.004765
1727.6211,-0.004787
1729.4848,-0.004793
1731.3484,-0.004778
1733.2121,-0.005034
1735.0758,-0.004647
1736.9394,-0.004114
1738.8031,-0.003947
1740.6668,-0.003495
1742.5304,-0.003226
1744.3941,-0.003145
1746.2578,-0.003289
1748.1214,-0.003862
1749.9851,-0.004260
1751.8488,-0.004515
1753.7125,-0.004888
1755.5761,-0.005642
1757.4398,-0.006274
1759.3035,-0.006606
1761.1671,-0.006970
1763.0308,-0.007073
1764.8945,-0.007153
1766.7581,-0.007314
1768.6218,-0.007297
1770.4855,-0.007390
1772.3491,-0.007647
1774.2128,-0.007464
1776.0765,-0.007373
1777.9401,-0.007273
1779.8038,-0.007148
1781.6675,-0.007159
1783.5312,-0.007249
1785.3948,-0.007240
1787.2585,-0.007070
1789.1222,-0.007191
1790.9858,-0.007655
1792.8495,-0.007789
1794.7132,-0.007283
1796.5768,-0.006924
1798.4405,-0.007097
1800.3042,-0.007340
1802.1678,-0.007237
1804.0315,-0.007164
1805.8952,-0.007086
1807.7589,-0.007099
1809.6225,-0.007141
1811.4862,-0.007174
1813.3499,-0.007133
1815.2135,-0.007065
1817.0772,-0.007001
1818.9409,-0.006831
1820.8045,-0.006698
1822.6682,-0.006910
1824.5319,-0.007096
1826.3955,-0.006924
1828.2592,-0.007054
1830.1229,-0.006974
1831.9865,-0.006604
1833.8502,-0.006372
1835.7139,-0.006068
1837.5776,-0.006245
1839.4412,-0.006365
1841.3049,-0.006497
1843.1686,-0.006775
1845.0322,-0.006434
1846.8959,-0.006252
1848.7596,-0.006214
1850.6232,-0.006166
1852.4869,-0.006247
1854.3506,-0.006025
1856.2142,-0.006016
1858.0779,-0.006536
1859.9416,-0.006614
1861.8052,-0.006320
1863.6689,-0.005947
1865.5326,-0.005648
1867.3963,-0.005725
1869.2599,-0.006175
1871.1236,-0.006296
1872.9873,-0.005922
1874.8509,-0.005934
1876.7146,-0.006147
1878.5783,-0.006002
1880.4419,-0.005963
1882.3056,-0.005994
1884.1693,-0.005934
1886.0329,-0.005917
1887.8966,-0.006014
1889.7603,-0.006119
1891.6240,-0.006297
1893.4876,-0.005936
1895.3513,-0.005456
1897.2150,-0.005426
1899.0786,-0.005112
1900.9423,-0.005194
1902.8060,-0.005533
1904.6696,-0.005365
1906.5333,-0.005367
1908.3970,-0.005546
1910.2606,-0.005524
1912.1243,-0.005188
1913.9880,-0.005070
1915.8516,-0.005112
1917.7153,-0.004778
1919.5790,-0.005032
1921.4427,-0.005865
1923.3063,-0.006366
1925.1700,-0.005932
1927.0337,-0.004974
1928.8973,-0.004334
1930.7610,-0.004312
1932.6247,-0.005075
1934.4883,-0.005590
1936.3520,-0.005759
1938.2157,-0.005337
1940.0793,-0.004630
1941.9430,-0.004538
1943.8067,-0.004378
1945.6704,-0.004459
1947.5340,-0.004336
1949.3977,-0.004614
1951.2614,-0.005978
1953.1250,-0.005521
1954.9887,-0.004599
1956.8524,-0.004607
1958.7160,-0.004267
1960.5797,-0.003715
1962.4434,-0.003775
1964.3070,-0.003348
1966.1707,-0.002116
1968.0344,-0.003567
1969.8980,-0.004894
1971.7617,-0.003935
1973.6254,-0.003288
1975.4891,-0.002406
1977.3527,-0.000824
1979.2164,-0.000696
1981.0801,-0.001976
1982.9437,-0.002950
1984.8074,-0.003177
1986.6711,-0.003221
1988.5347,-0.003333
1990.3984,-0.003162
1992.2621,-0.003048
1994.1257,-0.002497
1995.9894,-0.001422
1997.8531,-0.002521
1999.7167,-0.004119
2001.5804,-0.003969
2003.4441,-0.003388
2005.3078,-0.002712
2007.1714,-0.002710
2009.0351,-0.003464
2010.8988,-0.003206
2012.7624,-0.002166
2014.6261,-0.002286
2016.4898,-0.004020
2018.3534,-0.004740
2020.2171,-0.003473
2022.0808,-0.003010
2023.9444,-0.003727
2025.8081,-0.003151
2027.6718,-0.001800
2029.5355,-0.002137
2031.3991,-0.003193
2033.2628,-0.002209
2035.1265,-0.001638
2036.9901,-0.002278
2038.8538,-0.002168
2040.7175,-0.001783
2042.5811,-0.001546
2044.4448,-0.001463
2046.3085,-0.002183
2048.1721,-0.002765
2050.0358,-0.002489
2051.8995,-0.002935
2053.7631,-0.002990
2055.6268,-0.002809
2057.4905,-0.003298
2059.3542,-0.003941
2061.2178,-0.004043
2063.0815,-0.003574
2064.9452,-0.003429
2066.8088,-0.003299
2068.6725,-0.003643
2070.5362,-0.004040
2072.3998,-0.003892
2074.2635,-0.003885
2076.1272,-0.004044
2077.9908,-0.004093
2079.8545,-0.003602
2081.7182,-0.003270
2083.5819,-0.004003
2085.4455,-0.004536
2087.3092,-0.004283
2089.1729,-0.004253
2091.0365,-0.004819
2092.9002,-0.005312
2094.7639,-0.004618
2096.6275,-0.003837
2098.4912,-0.003533
2100.3549,-0.002941
2102.2185,-0.003319
2104.0822,-0.004336
2105.9459,-0.004568
2107.8095,-0.004204
2109.6732,-0.004134
2111.5369,-0.004243
2113.4006,-0.004142
2115.2642,-0.003958
2117.1279,-0.004296
2118.9916,-0.004929
2120.8552,-0.004940
2122.7189,-0.004455
2124.5826,-0.004081
2126.4462,-0.004509
2128.3099,-0.005059
2130.1736,-0.005129
2132.0372,-0.004989
2133.9009,-0.004556
2135.7646,-0.004023
2137.6282,-0.003829
2139.4919,-0.004126
2141.3556,-0.004027
2143.2193,-0.003779
2145.0829,-0.003031
2146.9466,-0.002020
2148.8103,-0.002829
2150.6739,-0.004765
2152.5376,-0.005416
2154.4013,-0.004857
2156.2649,-0.004080
2158.1286,-0.002214
2159.9923,-0.000020
2161.8559,-0.000471
2163.7196,-0.001610
2165.5833,-0.001304
2167.4470,-0.000737
2169.3106,-0.000931
2171.1743,-0.001977
2173.0380,-0.002323
2174.9016,-0.001698
2176.7653,-0.001111
2178.6290,-0.001738
2180.4926,-0.002317
2182.3563,-0.001376
2184.2200,-0.001307
2186.0836,-0.002647
2187.9473,-0.002363
2189.8110,-0.001616
2191.6746,-0.002661
2193.5383,-0.002982
2195.4020,-0.001908
2197.2657,-0.001385
2199.1293,-0.001616
2200.9930,-0.001638
2202.8567,-0.001846
2204.7203,-0.002591
2206.5840,-0.002965
2208.4477,-0.003000
2210.3113,-0.003143
2212.1750,-0.003662
2214.0387,-0.004054
2215.9023,-0.003559
2217.7660,-0.002912
2219.6297,-0.002581
2221.4934,-0.002346
2223.3570,-0.002588
2225.2207,-0.002823
2227.0844,-0.002669
2228.9480,-0.002715
2230.8117,-0.003135
2232.6754,-0.003141
2234.5390,-0.002398
2236.4027,-0.002357
2238.2664,-0.003119
2240.1300,-0.003653
2241.9937,-0.003274
2243.8574,-0.002752
2245.7210,-0.002450
2247.5847,-0.002000
2249.4484,-0.002530
2251.3121,-0.003317
2253.1757,-0.003502
2255.0394,-0.003333
2256.9031,-0.003098
2258.7667,-0.003032
2260.6304,-0.002802
2262.4941,-0.002705
2264.3577,-0.002845
2266.2214,-0.002847
2268.0851,-0.002841
2269.9487,-0.002922
2271.8124,-0.002840
2273.6761,-0.003065
2275.5397,-0.003299
2277.4034,-0.003039
2279.2671,-0.002744
2281.1308,-0.002556
2282.9944,-0.002560
2284.8581,-0.002686
2286.7218,-0.002929
2288.5854,-0.003347
2290.4491,-0.003412
2292.3128,-0.003259
2294.1764,-0.003541
2296.0401,-0.003576
2297.9038,-0.003254
2299.7674,-0.003425
2301.6311,-0.003554
2303.4948,-0.003423
2305.3585,-0.003514
2307.2221,-0.003741
2309.0858,-0.003990
2310.9495,-0.003919
2312.8131,-0.003709
2314.6768,-0.003522
2316.5405,-0.003218
2318.4041,-0.003037
2320.2678,-0.002947
2322.1315,-0.002749
2323.9951,-0.002610
2325.8588,-0.003047
2327.7225,-0.003975
2329.5861,-0.004770
2331.4498,-0.004874
2333.3135,-0.004439
2335.1772,-0.004253
2337.0408,-0.004150
2338.9045,-0.003789
2340.7682,-0.003241
2342.6318,-0.003374
2344.4955,-0.004066
2346.3592,-0.004151
2348.2228,-0.004289
2350.0865,-0.004607
2351.9502,-0.004645
2353.8138,-0.004332
2355.6775,-0.003991
2357.5412,-0.004035
2359.4049,-0.004232
2361.2685,-0.003770
2363.1322,-0.003354
2364.9959,-0.003401
2366.8595,-0.003830
2368.7232,-0.004269
2370.5869,-0.004101
2372.4505,-0.003709
2374.3142,-0.003722
2376.1779,-0.003806
2378.0415,-0.003681
2379.9052,-0.003737
2381.7689,-0.003801
2383.6325,-0.003729
2385.4962,-0.003785
2387.3599,-0.003971
2389.2236,-0.004139
2391.0872,-0.004140
2392.9509,-0.003822
2394.8146,-0.003707
2396.6782,-0.003793
2398.5419,-0.003720
2400.4056,-0.003682
2402.2692,-0.003445
2404.1329,-0.003189
2405.9966,-0.003166
2407.8602,-0.003153
2409.7239,-0.003294
2411.5876,-0.003225
2413.4512,-0.003158
2415.3149,-0.003085
2417.1786,-0.003231
2419.0423,-0.003387
2420.9059,-0.002956
2422.7696,-0.002633
2424.6333,-0.002418
2426.4969,-0.002391
2428.3606,-0.002872
2430.2243,-0.003188
2432.0879,-0.002995
2433.9516,-0.002652
2435.8153,-0.002379
2437.6789,-0.002282
2439.5426,-0.002326
2441.4063,-0.002600
2443.2700,-0.002671
2445.1336,-0.002407
2446.9973,-0.002464
2448.8610,-0.002648
2450.7246,-0.002233
2452.5883,-0.001891
2454.4520,-0.002046
2456.3156,-0.002222
2458.1793,-0.002290
2460.0430,-0.002160
2461.9066,-0.002032
2463.7703,-0.002068
2465.6340,-0.002348
2467.4976,-0.002482
2469.3613,-0.002204
2471.2250,-0.001983
2473.0887,-0.002001
2474.9523,-0.002071
2476.8160,-0.001778
2478.6797,-0.001651
2480.5433,-0.001757
2482.4070,-0.001724
2484.2707,-0.001801
2486.1343,-0.001973
2487.9980,-0.001866
2489.8617,-0.001582
2491.7253,-0.001475
2493.5890,-0.001717
2495.4527,-0.001984
2497.3164,-0.002031
2499.1800,-0.001819
2501.0437,-0.001519
2502.9074,-0.001364
2504.7710,-0.001531
2506.6347,-0.001557
2508.4984,-0.001453
2510.3620,-0.001203
2512.2257,-0.001161
2514.0894,-0.001233
2515.9530,-0.001210
2517.8167,-0.001277
2519.6804,-0.001211
2521.5440,-0.001223
2523.4077,-0.001286
2525.2714,-0.001403
2527.1351,-0.001386
2528.9987,-0.000910
2530.8624,-0.000625
2532.7261,-0.000952
2534.5897,-0.001266
2536.4534,-0.001199
2538.3171,-0.000911
2540.1807,-0.000699
2542.0444,-0.000705
2543.9081,-0.000776
2545.7717,-0.000871
2547.6354,-0.000932
2549.4991,-0.000699
2551.3627,-0.000794
2553.2264,-0.000961
2555.0901,-0.000948
2556.9538,-0.001151
2558.8174,-0.000944
2560.6811,-0.000364
2562.5448,-0.000133
2564.4084,-0.000389
2566.2721,-0.000711
2568.1358,-0.000383
2569.9994,-0.000148
2571.8631,-0.000258
2573.7268,-0.000328
2575.5904,-0.000456
2577.4541,-0.000509
2579.3178,-0.000491
2581.1815,-0.000564
2583.0451,-0.000355
2584.9088,-0.000109
2586.7725,-0.000272
2588.6361,-0.000332
2590.4998,-0.000152
2592.3635,-0.000148
2594.2271,0.000053
2596.0908,0.000181
2597.9545,0.000108
2599.8181,0.000093
2601.6818,-0.000097
2603.5455,-0.000204
2605.4091,0.000049
2607.2728,0.000221
2609.1365,0.000224
2611.0002,0.000285
2612.8638,0.000231
2614.7275,0.000167
2616.5912,0.000225
2618.4548,0.000299
2620.3185,0.000369
2622.1822,0.000441
2624.0458,0.000384
2625.9095,0.000484
2627.7732,0.000526
2629.6368,0.000478
2631.5005,0.000707
2633.3642,0.001063
2635.2279,0.001009
2637.0915,0.000543
2638.9552,0.000345
2640.8189,0.000402
2642.6825,0.000423
2644.5462,0.000637
2646.4099,0.000831
2648.2735,0.000814
2650.1372,0.000704
2652.0009,0.000713
2653.8645,0.000695
2655.7282,0.000556
2657.5919,0.000457
2659.4555,0.000402
2661.3192,0.000325
2663.1829,0.000311
2665.0466,0.000259
2666.9102,0.000189
2668.7739,0.000181
2670.6376,0.000260
2672.5012,0.000274
2674.3649,0.000337
2676.2286,0.000338
2678.0922,0.000437
2679.9559,0.000478
2681.8196,0.000463
2683.6832,0.000578
2685.5469,0.000476
2687.4106,0.000490
2689.2742,0.000623
2691.1379,0.000655
2693.0016,0.000722
2694.8653,0.000600
2696.7289,0.000634
2698.5926,0.000807
2700.4563,0.000731
2702.3199,0.000684
2704.1836,0.000775
2706.0473,0.000789
2707.9109,0.000796
2709.7746,0.000895
2711.6383,0.001120
2713.5019,0.001153
2715.3656,0.001120
2717.2293,0.001111
2719.0930,0.001196
2720.9566,0.001110
2722.8203,0.001076
2724.6840,0.001173
2726.5476,0.001215
2728.4113,0.001294
2730.2750,0.001353
2732.1386,0.001327
2734.0023,0.001471
2735.8660,0.001576
2737.7296,0.001557
2739.5933,0.001378
2741.4570,0.001215
2743.3206,0.001337
2745.1843,0.001361
2747.0480,0.001420
2748.9117,0.001642
2750.7753,0.001605
2752.6390,0.001598
2754.5027,0.001748
2756.3663,0.001833
2758.2300,0.001887
2760.0937,0.002010
2761.9573,0.001932
2763.8210,0.001834
2765.6847,0.001949
2767.5483,0.002232
2769.4120,0.002248
2771.2757,0.002169
2773.1394,0.002190
2775.0030,0.002135
2776.8667,0.002233
2778.7304,0.002311
2780.5940,0.002255
2782.4577,0.002360
2784.3214,0.002588
2786.1850,0.002634
2788.0487,0.002570
2789.9124,0.002611
2791.7760,0.002788
2793.6397,0.002790
2795.5034,0.002764
2797.3670,0.002892
2799.2307,0.002974
2801.0944,0.002969
2802.9581,0.003004
2804.8217,0.003095
2806.6854,0.003307
2808.5491,0.003280
2810.4127,0.003104
2812.2764,0.003131
2814.1401,0.003185
2816.0037,0.003277
2817.8674,0.003400
2819.7311,0.003450
2821.5947,0.003320
2823.4584,0.003237
2825.3221,0.003404
2827.1857,0.003542
2829.0494,0.003668
2830.9131,0.003948
2832.7768,0.003917
2834.6404,0.003922
2836.5041,0.004048
2838.3678,0.004181
2840.2314,0.004488
2842.0951,0.004753
2843.9588,0.005053
2845.8224,0.005615
2847.6861,0.006265
2849.5498,0.006739
2851.4134,0.007311
2853.2771,0.007396
2855.1408,0.007039
2857.0045,0.006767
2858.8681,0.006470
2860.7318,0.006394
2862.5955,0.006413
2864.4591,0.006305
2866.3228,0.005969
2868.1865,0.005895
2870.0501,0.006190
2871.9138,0.006122
2873.7775,0.005942
2875.6411,0.005979
2877.5048,0.005771
2879.3685,0.005624
2881.2321,0.005744
2883.0958,0.005694
2884.9595,0.005473
2886.8232,0.005631
2888.6868,0.005907
2890.5505,0.005921
2892.4142,0.006093
2894.2778,0.006075
2896.1415,0.006046
2898.0052,0.006239
2899.8688,0.006332
2901.7325,0.006398
2903.5962,0.006496
2905.4598,0.006596
2907.3235,0.006940
2909.1872,0.007586
2911.0509,0.007819
2912.9145,0.007870
2914.7782,0.007937
2916.6419,0.008278
2918.5055,0.008801
2920.3692,0.009133
2922.2329,0.009133
2924.0965,0.009212
2925.9602,0.009339
2927.8239,0.008931
2929.6875,0.008357
2931.5512,0.007911
2933.4149,0.007816
2935.2785,0.007557
2937.1422,0.006730
2939.0059,0.006253
2940.8696,0.006109
2942.7332,0.005833
2944.5969,0.005770
2946.4606,0.005672
2948.3242,0.005309
2950.1879,0.005327
2952.0516,0.005458
2953.9152,0.005313
2955.7789,0.004945
2957.6426,0.004930
2959.5062,0.004659
2961.3699,0.004250
2963.2336,0.004076
2965.0972,0.003901
2966.9609,0.003949
2968.8246,0.003703
2970.6883,0.003172
2972.5519,0.002932
2974.4156,0.002913
2976.2793,0.002566
2978.1429,0.002368
2980.0066,0.002176
2981.8703,0.001886
2983.7339,0.001708
2985.5976,0.001498
2987.4613,0.001103
2989.3249,0.000815
2991.1886,0.000870
2993.0523,0.001213
2994.9160,0.000820
2996.7796,0.000177
2998.6433,0.000174
3000.5070,0.000431
3002.3706,0.000457
3004.2343,0.000442
3006.0980,0.000372
3007.9616,0.000261
3009.8253,0.000556
3011.6890,0.000384
3013.5526,-0.000151
3015.4163,-0.000419
3017.2800,-0.000470
3019.1436,-0.000510
3021.0073,-0.000420
3022.8710,-0.000357
3024.7347,-0.000342
3026.5983,-0.000052
3028.4620,-0.000179
3030.3257,-0.000703
3032.1893,-0.000651
3034.0530,-0.000669
3035.9167,-0.000996
3037.7803,-0.001057
3039.6440,-0.000773
3041.5077,-0.000747
3043.3713,-0.000861
3045.2350,-0.000853
3047.0987,-0.001016
3048.9624,-0.001102
3050.8260,-0.001048
3052.6897,-0.001078
3054.5534,-0.001167
3056.4170,-0.001387
3058.2807,-0.001545
3060.1444,-0.001994
3062.0080,-0.002408
3063.8717,-0.002373
3065.7354,-0.001959
3067.5990,-0.001904
3069.4627,-0.002468
3071.3264,-0.002787
3073.1900,-0.002844
3075.0537,-0.002685
3076.9174,-0.002600
3078.7811,-0.002971
3080.6447,-0.003203
3082.5084,-0.003372
3084.3721,-0.003523
3086.2357,-0.003957
3088.0994,-0.004043
3089.9631,-0.004030
3091.8267,-0.004491
3093.6904,-0.004602
3095.5541,-0.004511
3097.4177,-0.004838
3099.2814,-0.005162
3101.1451,-0.005306
3103.0087,-0.005466
3104.8724,-0.005837
3106.7361,-0.005794
3108.5998,-0.005645
3110.4634,-0.005978
3112.3271,-0.006141
3114.1908,-0.005981
3116.0544,-0.006032
3117.9181,-0.006184
3119.7818,-0.006455
3121.6454,-0.006646
3123.5091,-0.006766
3125.3728,-0.006554
3127.2364,-0.006692
3129.1001,-0.007223
3130.9638,-0.007451
3132.8275,-0.007169
3134.6911,-0.007121
3136.5548,-0.007366
3138.4185,-0.007875
3140.2821,-0.007986
3142.1458,-0.007928
3144.0095,-0.008027
3145.8731,-0.007994
3147.7368,-0.008080
3149.6005,-0.008403
3151.4641,-0.008309
3153.3278,-0.008177
3155.1915,-0.008333
3157.0551,-0.008530
3158.9188,-0.008813
3160.7825,-0.008919
3162.6462,-0.008817
3164.5098,-0.008821
3166.3735,-0.008971
3168.2372,-0.008995
3170.1008,-0.008742
3171.9645,-0.008531
3173.8282,-0.008671
3175.6918,-0.009331
3177.5555,-0.009642
3179.4192,-0.009358
3181.2828,-0.009345
3183.1465,-0.009503
3185.0102,-0.009175
3186.8739,-0.009254
3188.7375,-0.009807
3190.6012,-0.010020
3192.4649,-0.010237
3194.3285,-0.010332
3196.1922,-0.010247
3198.0559,-0.010264
3199.9195,-0.010507
3201.7832,-0.010331
3203.6469,-0.010238
3205.5105,-0.010477
3207.3742,-0.010403
3209.2379,-0.010746
3211.1015,-0.011172
3212.9652,-0.011312
3214.8289,-0.010822
3216.6926,-0.010524
3218.5562,-0.010831
3220.4199,-0.011270
3222.2836,-0.011594
3224.1472,-0.012115
3226.0109,-0.011755
3227.8746,-0.011432
3229.7382,-0.011454
3231.6019,-0.011429
3233.4656,-0.011183
3235.3292,-0.011262
3237.1929,-0.011596
3239.0566,-0.011656
3240.9202,-0.011675
3242.7839,-0.011772
3244.6476,-0.011528
3246.5113,-0.011430
3248.3749,-0.011387
3250.2386,-0.011698
3252.1023,-0.011371
3253.9659,-0.011406
3255.8296,-0.011723
3257.6933,-0.011796
3259.5569,-0.011858
3261.4206,-0.011521
3263.2843,-0.011359
3265.1479,-0.011560
3267.0116,-0.011754
3268.8753,-0.011751
3270.7390,-0.011510
3272.6026,-0.011669
3274.4663,-0.011526
3276.3300,-0.011452
3278.1936,-0.011573
3280.0573,-0.011602
3281.9210,-0.011720
3283.7846,-0.011715
3285.6483,-0.011800
3287.5120,-0.012087
3289.3756,-0.011872
3291.2393,-0.011605
3293.1030,-0.011670
3294.9666,-0.011572
3296.8303,-0.011764
3298.6940,-0.012081
3300.5577,-0.012259
3302.4213,-0.012589
3304.2850,-0.012489
3306.1487,-0.012501
3308.0123,-0.012947
3309.8760,-0.013181
3311.7397,-0.013325
3313.6033,-0.013459
3315.4670,-0.013380
3317.3307,-0.013459
3319.1943,-0.013387
3321.0580,-0.013593
3322.9217,-0.013662
3324.7854,-0.013659
3326.6490,-0.014084
3328.5127,-0.014864
3330.3764,-0.014813
3332.2400,-0.014415
3334.1037,-0.014433
3335.9674,-0.014896
3337.8310,-0.014835
3339.6947,-0.014932
3341.5584,-0.015121
3343.4220,-0.015281
3345.2857,-0.015506
3347.1494,-0.015642
3349.0130,-0.015801
3350.8767,-0.016520
3352.7404,-0.017006
3354.6041,-0.016753
3356.4677,-0.016572
3358.3314,-0.016642
3360.1951,-0.016568
3362.0587,-0.016540
3363.9224,-0.016648
3365.7861,-0.016739
3367.6497,-0.016847
3369.5134,-0.017087
3371.3771,-0.017015
3373.2407,-0.017188
3375.1044,-0.017336
3376.9681,-0.017490
3378.8317,-0.017819
3380.6954,-0.017682
3382.5591,-0.017030
3384.4228,-0.017074
3386.2864,-0.017441
3388.1501,-0.017741
3390.0138,-0.018091
3391.8774,-0.018312
3393.7411,-0.018105
3395.6048,-0.018354
3397.4684,-0.018397
3399.3321,-0.017814
3401.1958,-0.017903
3403.0594,-0.018701
3404.9231,-0.018613
3406.7868,-0.018274
3408.6505,-0.018361
3410.5141,-0.018475
3412.3778,-0.017922
3414.2415,-0.017888
3416.1051,-0.018238
3417.9688,-0.018492
3419.8325,-0.018681
3421.6961,-0.018653
3423.5598,-0.018543
3425.4235,-0.018568
3427.2871,-0.018427
3429.1508,-0.018487
3431.0145,-0.018537
3432.8781,-0.018641
3434.7418,-0.019022
3436.6055,-0.018884
3438.4692,-0.018300
3440.3328,-0.018176
3442.1965,-0.018151
3444.0602,-0.017904
3445.9238,-0.018050
3447.7875,-0.018088
3449.6512,-0.018146
3451.5148,-0.018994
3453.3785,-0.019270
3455.2422,-0.018780
3457.1058,-0.017985
3458.9695,-0.017646
3460.8332,-0.017789
3462.6969,-0.018198
3464.5605,-0.018415
3466.4242,-0.018684
3468.2879,-0.019304
3470.1515,-0.019711
3472.0152,-0.019811
3473.8789,-0.019556
3475.7425,-0.019145
3477.6062,-0.018732
3479.4699,-0.018511
3481.3335,-0.018793
3483.1972,-0.018750
3485.0609,-0.018567
3486.9245,-0.018170
3488.7882,-0.018067
3490.6519,-0.018453
3492.5156,-0.018965
3494.3792,-0.018919
3496.2429,-0.018605
3498.1066,-0.018745
3499.9702,-0.018958
3501.8339,-0.018868
3503.6976,-0.019024
3505.5612,-0.018996
3507.4249,-0.018397
3509.2886,-0.017779
3511.1522,-0.018271
3513.0159,-0.018696
3514.8796,-0.018567
3516.7432,-0.018647
3518.6069,-0.018857
3520.4706,-0.018360
3522.3343,-0.018031
3524.1979,-0.018281
3526.0616,-0.018490
3527.9253,-0.018569
3529.7889,-0.018463
3531.6526,-0.018352
3533.5163,-0.018505
3535.3799,-0.018722
3537.2436,-0.018635
3539.1073,-0.018174
3540.9709,-0.018137
3542.8346,-0.018424
3544.6983,-0.018446
3546.5620,-0.018169
3548.4256,-0.017713
3550.2893,-0.017691
3552.1530,-0.017992
3554.0166,-0.017941
3555.8803,-0.017975
3557.7440,-0.018056
3559.6076,-0.017440
3561.4713,-0.016526
3563.3350,-0.016290
3565.1986,-0.016437
3567.0623,-0.017341
3568.9260,-0.017815
3570.7896,-0.017402
3572.6533,-0.017105
3574.5170,-0.017162
3576.3807,-0.016969
3578.2443,-0.016548
3580.1080,-0.016423
3581.9717,-0.016553
3583.8353,-0.016509
3585.6990,-0.016467
3587.5627,-0.016653
3589.4263,-0.016588
3591.2900,-0.015983
3593.1537,-0.015484
3595.0173,-0.015603
3596.8810,-0.015563
3598.7447,-0.015079
3600.6084,-0.015186
3602.4720,-0.015670
3604.3357,-0.015570
3606.1994,-0.015134
3608.0630,-0.014863
3609.9267,-0.014634
3611.7904,-0.014716
3613.6540,-0.015152
3615.5177,-0.015093
3617.3814,-0.014764
3619.2450,-0.014686
3621.1087,-0.014305
3622.9724,-0.014052
3624.8360,-0.013758
3626.6997,-0.013736
3628.5634,-0.014349
3630.4271,-0.013897
3632.2907,-0.013133
3634.1544,-0.013238
3636.0181,-0.013313
3637.8817,-0.013217
3639.7454,-0.013057
3641.6091,-0.012889
3643.4727,-0.012798
3645.3364,-0.012601
3647.2001,-0.012625
3649.0637,-0.012841
3650.9274,-0.012371
3652.7911,-0.011828
3654.6547,-0.011822
3656.5184,-0.012034
3658.3821,-0.011719
3660.2458,-0.011262
3662.1094,-0.011394
3663.9731,-0.011417
3665.8368,-0.011064
3667.7004,-0.011056
3669.5641,-0.011392
3671.4278,-0.010961
3673.2914,-0.010537
3675.1551,-0.010796
3677.0188,-0.010410
3678.8824,-0.010279
3680.7461,-0.010294
3682.6098,-0.009889
3684.4735,-0.009611
3686.3371,-0.009613
3688.2008,-0.009923
3690.0645,-0.009998
3691.9281,-0.009775
3693.7918,-0.009551
3695.6555,-0.009344
3697.5191,-0.009239
3699.3828,-0.009340
3701.2465,-0.009553
3703.1101,-0.009268
3704.9738,-0.008786
3706.8375,-0.008784
3708.7011,-0.008926
3710.5648,-0.009128
3712.4285,-0.009346
3714.2922,-0.009112
3716.1558,-0.008582
3718.0195,-0.008569
3719.8832,-0.008919
3721.7468,-0.009218
3723.6105,-0.009377
3725.4742,-0.009175
3727.3378,-0.008846
3729.2015,-0.008450
3731.0652,-0.008430
3732.9288,-0.009233
3734.7925,-0.009466
3736.6562,-0.009038
3738.5199,-0.008824
3740.3835,-0.008928
3742.2472,-0.009505
3744.1109,-0.009864
3745.9745,-0.009239
3747.8382,-0.008799
3749.7019,-0.009169
3751.5655,-0.008768
3753.4292,-0.007966
3755.2929,-0.008010
3757.1565,-0.008288
3759.0202,-0.008523
3760.8839,-0.008577
3762.7475,-0.008384
3764.6112,-0.008461
3766.4749,-0.008682
3768.3386,-0.008626
3770.2022,-0.008617
3772.0659,-0.008355
3773.9296,-0.008062
3775.7932,-0.008186
3777.6569,-0.008494
3779.5206,-0.008895
3781.3842,-0.008928
3783.2479,-0.008436
3785.1116,-0.008294
3786.9752,-0.008284
3788.8389,-0.008500
3790.7026,-0.008918
3792.5662,-0.008601
3794.4299,-0.008070
3796.2936,-0.008272
3798.1573,-0.008693
3800.0209,-0.009025
3801.8846,-0.009226
3803.7483,-0.008589
3805.6119,-0.008392
3807.4756,-0.008607
3809.3393,-0.008224
3811.2029,-0.008154
3813.0666,-0.008523
3814.9303,-0.009034
3816.7939,-0.009033
3818.6576,-0.008607
3820.5213,-0.008670
3822.3850,-0.008840
3824.2486,-0.008389
3826.1123,-0.008339
3827.9760,-0.008434
3829.8396,-0.008518
3831.7033,-0.008950
3833.5670,-0.009054
3835.4306,-0.008921
3837.2943,-0.008956
3839.1580,-0.008845
3841.0216,-0.008500
3842.8853,-0.008361
3844.7490,-0.008678
3846.6126,-0.008812
3848.4763,-0.008459
3850.3400,-0.008269
3852.2037,-0.008810
3854.0673,-0.009089
3855.9310,-0.008016
3857.7947,-0.007661
3859.6583,-0.008435
3861.5220,-0.008901
3863.3857,-0.008720
3865.2493,-0.008620
3867.1130,-0.008556
3868.9767,-0.008619
3870.8403,-0.008566
3872.7040,-0.008125
3874.5677,-0.008180
3876.4314,-0.007928
3878.2950,-0.007921
3880.1587,-0.008650
3882.0224,-0.008758
3883.8860,-0.008388
3885.7497,-0.008404
3887.6134,-0.008319
3889.4770,-0.008201
3891.3407,-0.008730
3893.2044,-0.008967
3895.0680,-0.008362
3896.9317,-0.008256
3898.7954,-0.008853
3900.6590,-0.009212
3902.5227,-0.008720
3904.3864,-0.008328
3906.2501,-0.008022
3908.1137,-0.007847
3909.9774,-0.007985
3911.8411,-0.008193
3913.7047,-0.008372
3915.5684,-0.008420
3917.4321,-0.008296
3919.2957,-0.008024
3921.1594,-0.008368
3923.0231,-0.008888
3924.8867,-0.008850
3926.7504,-0.008390
3928.6141,-0.008115
3930.4777,-0.008130
3932.3414,-0.008084
3934.2051,-0.008175
3936.0688,-0.008146
3937.9324,-0.008094
3939.7961,-0.007979
3941.6598,-0.008145
3943.5234,-0.008576
3945.3871,-0.008482
3947.2508,-0.008123
3949.1144,-0.008118
3950.9781,-0.008067
3952.8418,-0.007874
3954.7054,-0.008099
3956.5691,-0.008281
3958.4328,-0.008085
3960.2965,-0.008070
3962.1601,-0.008168
3964.0238,-0.008069
3965.8875,-0.007862
3967.7511,-0.007918
3969.6148,-0.008127
3971.4785,-0.008125
3973.3421,-0.007906
3975.2058,-0.008198
3977.0695,-0.008341
3978.9331,-0.008154
3980.7968,-0.008279
3982.6605,-0.008475
3984.5241,-0.008133
3986.3878,-0.007938
3988.2515,-0.008028
3990.1152,-0.008132
3991.9788,-0.008463
3993.8425,-0.008347
3995.7062,-0.007819
3997.5698,-0.008036
3999.4335,-0.008406
