Wavenumber,Intensity
650.4205,0.079600
652.2841,0.077367
654.1478,0.076153
656.0115,0.076003
657.8751,0.074797
659.7388,0.074778
661.6025,0.075348
663.4661,0.074753
665.3298,0.074187
667.1935,0.072982
669.0571,0.074648
670.9208,0.074193
672.7845,0.073193
674.6481,0.071291
676.5118,0.071350
678.3755,0.071664
680.2392,0.070642
682.1028,0.069312
683.9665,0.068716
685.8302,0.069380
687.6938,0.069300
689.5575,0.068152
691.4212,0.068670
693.2848,0.069137
695.1485,0.068547
697.0122,0.067996
698.8758,0.068078
700.7395,0.068137
702.6032,0.067484
704.4669,0.065972
706.3305,0.065186
708.1942,0.064371
710.0579,0.063904
711.9215,0.064022
713.7852,0.063588
715.6489,0.062294
717.5125,0.061889
719.3762,0.062176
721.2399,0.062072
723.1035,0.061117
724.9672,0.059871
726.8309,0.059200
728.6945,0.058803
730.5582,0.058184
732.4219,0.057853
734.2856,0.057894
736.1492,0.057723
738.0129,0.057389
739.8766,0.057389
741.7402,0.057071
743.6039,0.056805
745.4676,0.056668
747.3312,0.056328
749.1949,0.055778
751.0586,0.055931
752.9222,0.055641
754.7859,0.054953
756.6496,0.054885
758.5132,0.054978
760.3769,0.054385
762.2406,0.054031
764.1043,0.054287
765.9679,0.054156
767.8316,0.053465
769.6953,0.053177
771.5589,0.053140
773.4226,0.052733
775.2863,0.052430
777.1499,0.052342
779.0136,0.052387
780.8773,0.052090
782.7409,0.050799
784.6046,0.049812
786.4683,0.049575
788.3320,0.049382
790.1956,0.048520
792.0593,0.047469
793.9230,0.046969
795.7866,0.046350
797.6503,0.045810
799.5140,0.045765
801.3776,0.045565
803.2413,0.044688
805.1050,0.044218
806.9686,0.044255
808.8323,0.044285
810.6960,0.044262
812.5596,0.043710
814.4233,0.043274
816.2870,0.043341
818.1507,0.043241
820.0143,0.042963
821.8780,0.042722
823.7417,0.042344
825.6053,0.041851
827.4690,0.041385
829.3327,0.041009
831.1963,0.040690
833.0600,0.040349
834.9237,0.040053
836.7873,0.040036
838.6510,0.040019
840.5147,0.039755
842.3784,0.039534
844.2420,0.039557
846.1057,0.039692
847.9694,0.040015
849.8330,0.040017
851.6967,0.039954
853.5604,0.040023
855.4240,0.039881
857.2877,0.039531
859.1514,0.038930
861.0150,0.038571
862.8787,0.038392
864.7424,0.038108
866.6060,0.037791
868.4697,0.037538
870.3334,0.037317
872.1971,0.037100
874.0607,0.036997
875.9244,0.036762
877.7881,0.036467
879.6517,0.036135
881.5154,0.035940
883.3791,0.035941
885.2427,0.035833
887.1064,0.035715
888.9701,0.035697
890.8337,0.035741
892.6974,0.036037
894.5611,0.036113
896.4247,0.036055
898.2884,0.036256
900.1521,0.036448
902.0158,0.036446
903.8794,0.036415
905.7431,0.036409
907.6068,0.036464
909.4704,0.036727
911.3341,0.037154
913.1978,0.037588
915.0614,0.038089
916.9251,0.038488
918.7888,0.038706
920.6524,0.039037
922.5161,0.039404
924.3798,0.039570
926.2435,0.039566
928.1071,0.039286
929.9708,0.039150
931.8345,0.038987
933.6981,0.038675
935.5618,0.038411
937.4255,0.038176
939.2891,0.038147
941.1528,0.038408
943.0165,0.038583
944.8801,0.038795
946.7438,0.039033
948.6075,0.039235
950.4711,0.039317
952.3348,0.039323
954.1985,0.039601
956.0622,0.040104
957.9258,0.040623
959.7895,0.041398
961.6532,0.042382
963.5168,0.043457
965.3805,0.044552
967.2442,0.045565
969.1078,0.046386
970.9715,0.047049
972.8352,0.047816
974.6988,0.048768
976.5625,0.049853
978.4262,0.051293
980.2899,0.052946
982.1535,0.054699
984.0172,0.056527
985.8809,0.058277
987.7445,0.060002
989.6082,0.061464
991.4719,0.062628
993.3355,0.063711
995.1992,0.064630
997.0629,0.065506
998.9265,0.066509
1000.7902,0.067557
1002.6539,0.068680
1004.5175,0.069911
1006.3812,0.071251
1008.2449,0.072770
1010.1086,0.074491
1011.9722,0.076339
1013.8359,0.078225
1015.6996,0.080118
1017.5632,0.081690
1019.4269,0.083057
1021.2906,0.084155
1023.1542,0.084872
1025.0179,0.085412
1026.8816,0.085958
1028.7452,0.086439
1030.6089,0.086676
1032.4726,0.086760
1034.3362,0.086795
1036.1999,0.086555
1038.0636,0.086102
1039.9273,0.085390
1041.7909,0.084392
1043.6546,0.083173
1045.5183,0.082077
1047.3819,0.080984
1049.2456,0.080094
1051.1093,0.079494
1052.9729,0.078917
1054.8366,0.078409
1056.7003,0.077881
1058.5639,0.077291
1060.4276,0.076821
1062.2913,0.076432
1064.1550,0.076346
1066.0186,0.076649
1067.8823,0.077155
1069.7460,0.077707
1071.6096,0.078148
1073.4733,0.078381
1075.3370,0.078259
1077.2006,0.077507
1079.0643,0.076221
1080.9280,0.074442
1082.7916,0.072518
1084.6553,0.070399
1086.5190,0.068295
1088.3826,0.066563
1090.2463,0.065160
1092.1100,0.064015
1093.9737,0.063174
1095.8373,0.062533
1097.7010,0.062229
1099.5647,0.062093
1101.4283,0.061956
1103.2920,0.061767
1105.1557,0.061572
1107.0193,0.061425
1108.8830,0.061394
1110.7467,0.061398
1112.6103,0.061306
1114.4740,0.061199
1116.3377,0.060995
1118.2014,0.060642
1120.0650,0.060185
1121.9287,0.059477
1123.7924,0.058589
1125.6560,0.057670
1127.5197,0.056635
1129.3834,0.055578
1131.2470,0.054537
1133.1107,0.053524
1134.9744,0.052865
1136.8380,0.052389
1138.7017,0.052080
1140.5654,0.052069
1142.4290,0.052291
1144.2927,0.052508
1146.1564,0.052698
1148.0201,0.052764
1149.8837,0.052599
1151.7474,0.052164
1153.6111,0.051416
1155.4747,0.050446
1157.3384,0.049409
1159.2021,0.048264
1161.0657,0.047117
1162.9294,0.046061
1164.7931,0.044942
1166.6567,0.043802
1168.5204,0.042685
1170.3841,0.041589
1172.2477,0.040515
1174.1114,0.039389
1175.9751,0.038227
1177.8388,0.037223
1179.7024,0.036463
1181.5661,0.035897
1183.4298,0.035570
1185.2934,0.035422
1187.1571,0.035382
1189.0208,0.035500
1190.8844,0.035698
1192.7481,0.035989
1194.6118,0.036405
1196.4754,0.036911
1198.3391,0.037493
1200.2028,0.037987
1202.0665,0.038476
1203.9301,0.039014
1205.7938,0.039468
1207.6575,0.039751
1209.5211,0.040030
1211.3848,0.040360
1213.2485,0.040705
1215.1121,0.041094
1216.9758,0.041608
1218.8395,0.042164
1220.7031,0.042756
1222.5668,0.043383
1224.4305,0.043982
1226.2941,0.044569
1228.1578,0.045088
1230.0215,0.045501
1231.8852,0.045916
1233.7488,0.046273
1235.6125,0.046518
1237.4762,0.046556
1239.3398,0.046529
1241.2035,0.046447
1243.0672,0.046351
1244.9308,0.046241
1246.7945,0.045985
1248.6582,0.045659
1250.5218,0.045380
1252.3855,0.045145
1254.2492,0.044969
1256.1129,0.044787
1257.9765,0.044467
1259.8402,0.044111
1261.7039,0.043842
1263.5675,0.043582
1265.4312,0.043311
1267.2949,0.043073
1269.1585,0.042823
1271.0222,0.042510
1272.8859,0.042261
1274.7495,0.042041
1276.6132,0.041882
1278.4769,0.041746
1280.3405,0.041596
1282.2042,0.041429
1284.0679,0.041360
1285.9316,0.041326
1287.7952,0.041395
1289.6589,0.041504
1291.5226,0.041599
1293.3862,0.041871
1295.2499,0.042174
1297.1136,0.042378
1298.9772,0.042694
1300.8409,0.043063
1302.7046,0.043388
1304.5682,0.043768
1306.4319,0.044105
1308.2956,0.044340
1310.1592,0.044464
1312.0229,0.044705
1313.8866,0.044925
1315.7503,0.044785
1317.6139,0.044598
1319.4776,0.044472
1321.3413,0.044237
1323.2049,0.043917
1325.0686,0.043590
1326.9323,0.043256
1328.7959,0.043123
1330.6596,0.043133
1332.5233,0.043089
1334.3869,0.043070
1336.2506,0.043392
1338.1143,0.043940
1339.9780,0.044518
1341.8416,0.044822
1343.7053,0.044779
1345.5690,0.044842
1347.4326,0.045009
1349.2963,0.045152
1351.1600,0.045255
1353.0236,0.045361
1354.8873,0.045542
1356.7510,0.045757
1358.6146,0.045957
1360.4783,0.046357
1362.3420,0.047152
1364.2056,0.047902
1366.0693,0.048130
1367.9330,0.048332
1369.7967,0.048681
1371.6603,0.048956
1373.5240,0.049597
1375.3877,0.050476
1377.2513,0.050845
1379.1150,0.051194
1380.9787,0.051449
1382.8423,0.051522
1384.7060,0.051680
1386.5697,0.052246
1388.4333,0.052877
1390.2970,0.052802
1392.1607,0.052765
1394.0244,0.053398
1395.8880,0.054431
1397.7517,0.054881
1399.6154,0.055570
1401.4790,0.055778
1403.3427,0.055536
1405.2064,0.055847
1407.0700,0.056127
1408.9337,0.055883
1410.7974,0.055669
1412.6610,0.055406
1414.5247,0.054818
1416.3884,0.054133
1418.2520,0.053923
1420.1157,0.053810
1421.9794,0.052688
1423.8431,0.051682
1425.7067,0.050978
1427.5704,0.050225
1429.4341,0.049853
1431.2977,0.049589
1433.1614,0.049253
1435.0251,0.049278
1436.8887,0.050398
1438.7524,0.050983
1440.6161,0.050828
1442.4797,0.050858
1444.3434,0.051094
1446.2071,0.051578
1448.0707,0.052371
1449.9344,0.052562
1451.7981,0.052050
1453.6618,0.051496
1455.5254,0.051219
1457.3891,0.051901
1459.2528,0.051148
1461.1164,0.049500
1462.9801,0.048248
1464.8438,0.047651
1466.7074,0.046650
1468.5711,0.045062
1470.4348,0.043565
1472.2984,0.042672
1474.1621,0.041734
1476.0258,0.040541
1477.8895,0.039478
1479.7531,0.038517
1481.6168,0.037896
1483.4805,0.037516
1485.3441,0.037316
1487.2078,0.037720
1489.0715,0.038657
1490.9351,0.039634
1492.7988,0.039972
1494.6625,0.040400
1496.5261,0.041833
1498.3898,0.043468
1500.2535,0.044352
1502.1171,0.044979
1503.9808,0.045703
1505.8445,0.047697
1507.7082,0.052078
1509.5718,0.053615
1511.4355,0.054204
1513.2992,0.055322
1515.1628,0.056444
1517.0265,0.058113
1518.8902,0.059252
1520.7538,0.059861
1522.6175,0.061589
1524.4812,0.062102
1526.3448,0.062952
1528.2085,0.064344
1530.0722,0.065077
1531.9359,0.065595
1533.7995,0.067021
1535.6632,0.067964
1537.5269,0.067669
1539.3905,0.068456
1541.2542,0.070849
1543.1179,0.071273
1544.9815,0.071225
1546.8452,0.070717
1548.7089,0.070011
1550.5725,0.069804
1552.4362,0.069147
1554.2999,0.068304
1556.1635,0.067430
1558.0272,0.066973
1559.8909,0.068714
1561.7546,0.067557
1563.6182,0.065978
1565.4819,0.065525
1567.3456,0.064916
1569.2092,0.064544
1571.0729,0.064829
1572.9366,0.063919
1574.8002,0.063248
1576.6639,0.064223
1578.5276,0.064245
1580.3912,0.063325
1582.2549,0.062945
1584.1186,0.062694
1585.9822,0.062570
1587.8459,0.062380
1589.7096,0.062167
1591.5733,0.062297
1593.4369,0.062726
1595.3006,0.062855
1597.1643,0.062713
1599.0279,0.062461
1600.8916,0.062482
1602.7553,0.062887
1604.6189,0.063476
1606.4826,0.063997
1608.3463,0.064738
1610.2099,0.065677
1612.0736,0.066648
1613.9373,0.067488
1615.8010,0.068711
1617.6646,0.070734
1619.5283,0.071715
1621.3920,0.072163
1623.2556,0.073360
1625.1193,0.074556
1626.9830,0.074939
1628.8466,0.075377
1630.7103,0.075808
1632.5740,0.075845
1634.4376,0.075596
1636.3013,0.075792
1638.1650,0.075616
1640.0286,0.074712
1641.8923,0.073952
1643.7560,0.073176
1645.6197,0.072348
1647.4833,0.071834
1649.3470,0.070957
1651.2107,0.069059
1653.0743,0.067330
1654.9380,0.066315
1656.8017,0.064692
1658.6653,0.062678
1660.5290,0.060636
1662.3927,0.058316
1664.2563,0.056050
1666.1200,0.053959
1667.9837,0.051670
1669.8474,0.049278
1671.7110,0.047121
1673.5747,0.044716
1675.4384,0.042210
1677.3020,0.040181
1679.1657,0.038309
1681.0294,0.036035
1682.8930,0.033290
1684.7567,0.029997
1686.6204,0.028178
1688.4840,0.026529
1690.3477,0.024490
1692.2114,0.022663
1694.0750,0.020823
1695.9387,0.018431
1697.8024,0.016670
1699.6661,0.014482
1701.5297,0.012636
1703.3934,0.012180
1705.2571,0.011141
1707.1207,0.009941
1708.9844,0.009404
1710.8481,0.008932
1712.7117,0.008524
1714.5754,0.008035
1716.4391,0.007282
1718.3027,0.006247
1720.1664,0.006409
1722.0301,0.006429
1723.8937,0.006143
1725.7574,0.006184
1727.6211,0.006343
1729.4848,0.006373
1731.3484,0.006506
1733.2121,0.006197
1735.0758,0.006309
1736.9394,0.007042
1738.8031,0.007219
1740.6668,0.007330
1742.5304,0.007613
1744.3941,0.007571
1746.2578,0.007355
1748.1214,0.006746
1749.9851,0.005661
1751.8488,0.004316
1753.7125,0.003549
1755.5761,0.002864
1757.4398,0.002043
1759.3035,0.001510
1761.1671,0.000896
1763.0308,0.000283
1764.8945,0.000278
1766.7581,0.000140
1768.6218,-0.000147
1770.4855,-0.000397
1772.3491,-0.001011
1774.2128,-0.001074
1776.0765,-0.000618
1777.9401,-0.000530
1779.8038,-0.000708
1781.6675,-0.000683
1783.5312,-0.000764
1785.3948,-0.001003
1787.2585,-0.000769
1789.1222,-0.000723
1790.9858,-0.001092
1792.8495,-0.001336
1794.7132,-0.001203
1796.5768,-0.001015
1798.4405,-0.001032
1800.3042,-0.001482
1802.1678,-0.001560
1804.0315,-0.001381
1805.8952,-0.001464
1807.7589,-0.001574
1809.6225,-0.001528
1811.4862,-0.001610
1813.3499,-0.001673
1815.2135,-0.001850
1817.0772,-0.001917
1818.9409,-0.001673
1820.8045,-0.001430
1822.6682,-0.001645
1824.5319,-0.001994
1826.3955,-0.001822
1828.2592,-0.001688
1830.1229,-0.002032
1831.9865,-0.001902
1833.8502,-0.001807
1835.7139,-0.001987
1837.5776,-0.001942
1839.4412,-0.001673
1841.3049,-0.001604
1843.1686,-0.001915
1845.0322,-0.002343
1846.8959,-0.002130
1848.7596,-0.001884
1850.6232,-0.002174
1852.4869,-0.002376
1854.3506,-0.002190
1856.2142,-0.002049
1858.0779,-0.002181
1859.9416,-0.002352
1861.8052,-0.002387
1863.6689,-0.002233
1865.5326,-0.001773
1867.3963,-0.001843
1869.2599,-0.002349
1871.1236,-0.002376
1872.9873,-0.002277
1874.8509,-0.002058
1876.7146,-0.001912
1878.5783,-0.002111
1880.4419,-0.002196
1882.3056,-0.002212
1884.1693,-0.002171
1886.0329,-0.002118
1887.8966,-0.002110
1889.7603,-0.002242
1891.6240,-0.002252
1893.4876,-0.002263
1895.3513,-0.002306
1897.2150,-0.002407
1899.0786,-0.002358
1900.9423,-0.002357
1902.8060,-0.002457
1904.6696,-0.002193
1906.5333,-0.001928
1908.3970,-0.002468
1910.2606,-0.002732
1912.1243,-0.002359
1913.9880,-0.002330
1915.8516,-0.002890
1917.7153,-0.003164
1919.5790,-0.002660
1921.4427,-0.002250
1923.3063,-0.002566
1925.1700,-0.002619
1927.0337,-0.002207
1928.8973,-0.002197
1930.7610,-0.003094
1932.6247,-0.003254
1934.4883,-0.002467
1936.3520,-0.002399
1938.2157,-0.002837
1940.0793,-0.002833
1941.9430,-0.003287
1943.8067,-0.003702
1945.6704,-0.003060
1947.5340,-0.002130
1949.3977,-0.002111
1951.2614,-0.003140
1953.1250,-0.003941
1954.9887,-0.003988
1956.8524,-0.004016
1958.7160,-0.004150
1960.5797,-0.004402
1962.4434,-0.003873
1964.3070,-0.004347
1966.1707,-0.004920
1968.0344,-0.004606
1969.8980,-0.004843
1971.7617,-0.004365
1973.6254,-0.003881
1975.4891,-0.005236
1977.3527,-0.005256
1979.2164,-0.002795
1981.0801,-0.001931
1982.9437,-0.002318
1984.8074,-0.002845
1986.6711,-0.003871
1988.5347,-0.003666
1990.3984,-0.003441
1992.2621,-0.003497
1994.1257,-0.003290
1995.9894,-0.003311
1997.8531,-0.003946
1999.7167,-0.004473
2001.5804,-0.003875
2003.4441,-0.003489
2005.3078,-0.004033
2007.1714,-0.003810
2009.0351,-0.003243
2010.8988,-0.003452
2012.7624,-0.003745
2014.6261,-0.003630
2016.4898,-0.002999
2018.3534,-0.003863
2020.2171,-0.005506
2022.0808,-0.004670
2023.9444,-0.003401
2025.8081,-0.003890
2027.6718,-0.004018
2029.5355,-0.003660
2031.3991,-0.003865
2033.2628,-0.003968
2035.1265,-0.003069
2036.9901,-0.001859
2038.8538,-0.001604
2040.7175,-0.002208
2042.5811,-0.002631
2044.4448,-0.002871
2046.3085,-0.002245
2048.1721,-0.001441
2050.0358,-0.001010
2051.8995,-0.000880
2053.7631,-0.001403
2055.6268,-0.001493
2057.4905,-0.001329
2059.3542,-0.001112
2061.2178,-0.001411
2063.0815,-0.001491
2064.9452,-0.001365
2066.8088,-0.001354
2068.6725,-0.001012
2070.5362,-0.001287
2072.3998,-0.001843
2074.2635,-0.001326
2076.1272,-0.000723
2077.9908,-0.000399
2079.8545,-0.000293
2081.7182,-0.000372
2083.5819,-0.000126
2085.4455,-0.000125
2087.3092,-0.000752
2089.1729,-0.000827
2091.0365,-0.000708
2092.9002,-0.000975
2094.7639,-0.000816
2096.6275,-0.000738
2098.4912,-0.000690
2100.3549,-0.001028
2102.2185,-0.001699
2104.0822,-0.001106
2105.9459,-0.000365
2107.8095,-0.000618
2109.6732,-0.000824
2111.5369,-0.000369
2113.4006,-0.000003
2115.2642,-0.000078
2117.1279,-0.000363
2118.9916,-0.000784
2120.8552,-0.000840
2122.7189,-0.001048
2124.5826,-0.001532
2126.4462,-0.001833
2128.3099,-0.001843
2130.1736,-0.001600
2132.0372,-0.001839
2133.9009,-0.001892
2135.7646,-0.001331
2137.6282,-0.000939
2139.4919,-0.001922
2141.3556,-0.002593
2143.2193,-0.001811
2145.0829,-0.001866
2146.9466,-0.002649
2148.8103,-0.002913
2150.6739,-0.003143
2152.5376,-0.004451
2154.4013,-0.005438
2156.2649,-0.004886
2158.1286,-0.004086
2159.9923,-0.003629
2161.8559,-0.003481
2163.7196,-0.002881
2165.5833,-0.001821
2167.4470,-0.001815
2169.3106,-0.001548
2171.1743,-0.001916
2173.0380,-0.003196
2174.9016,-0.003121
2176.7653,-0.001480
2178.6290,-0.000073
2180.4926,-0.000697
2182.3563,-0.001965
2184.2200,-0.002201
2186.0836,-0.002277
2187.9473,-0.002407
2189.8110,-0.001267
2191.6746,-0.000525
2193.5383,-0.001170
2195.4020,-0.002106
2197.2657,-0.002416
2199.1293,-0.002051
2200.9930,-0.001542
2202.8567,-0.001225
2204.7203,-0.000053
2206.5840,0.000904
2208.4477,0.000334
2210.3113,-0.000592
2212.1750,-0.001290
2214.0387,-0.001118
2215.9023,-0.000969
2217.7660,-0.001596
2219.6297,-0.001276
2221.4934,-0.000693
2223.3570,-0.001025
2225.2207,-0.001155
2227.0844,-0.000633
2228.9480,-0.000042
2230.8117,-0.000569
2232.6754,-0.000899
2234.5390,-0.000415
2236.4027,-0.000711
2238.2664,-0.000575
2240.1300,-0.000066
2241.9937,-0.000564
2243.8574,-0.001209
2245.7210,-0.000760
2247.5847,-0.000609
2249.4484,-0.000719
2251.3121,-0.000513
2253.1757,-0.000386
2255.0394,0.000155
2256.9031,0.000262
2258.7667,0.000065
2260.6304,0.000201
2262.4941,-0.000237
2264.3577,-0.000763
2266.2214,-0.000245
2268.0851,0.000604
2269.9487,0.000404
2271.8124,-0.000278
2273.6761,-0.000368
2275.5397,0.000376
2277.4034,0.000839
2279.2671,0.000498
2281.1308,0.000515
2282.9944,0.000863
2284.8581,0.000662
2286.7218,0.000514
2288.5854,0.000422
2290.4491,0.000273
2292.3128,0.000335
2294.1764,0.000508
2296.0401,0.000467
2297.9038,0.000214
2299.7674,-0.000213
2301.6311,-0.000414
2303.4948,0.000017
2305.3585,0.000278
2307.2221,0.000071
2309.0858,0.000203
2310.9495,0.000584
2312.8131,0.000226
2314.6768,-0.000247
2316.5405,-0.000006
2318.4041,0.000212
2320.2678,0.000134
2322.1315,0.000472
2323.9951,0.000544
2325.8588,0.000265
2327.7225,0.000308
2329.5861,0.000059
2331.4498,-0.000292
2333.3135,-0.000338
2335.1772,-0.000429
2337.0408,0.000034
2338.9045,0.000630
2340.7682,0.000214
2342.6318,-0.000531
2344.4955,-0.001048
2346.3592,-0.001255
2348.2228,-0.000863
2350.0865,-0.000298
2351.9502,-0.000442
2353.8138,-0.001284
2355.6775,-0.001659
2357.5412,-0.001406
2359.4049,-0.001113
2361.2685,-0.001188
2363.1322,-0.001079
2364.9959,-0.000500
2366.8595,-0.000431
2368.7232,-0.000551
2370.5869,-0.000520
2372.4505,-0.000532
2374.3142,-0.000190
2376.1779,0.000202
2378.0415,0.000358
2379.9052,0.000529
2381.7689,0.000386
2383.6325,0.000165
2385.4962,0.000208
2387.3599,0.000234
2389.2236,0.000337
2391.0872,0.000471
2392.9509,0.000313
2394.8146,-0.000015
2396.6782,-0.000083
2398.5419,0.000271
2400.4056,0.000663
2402.2692,0.000539
2404.1329,0.000385
2405.9966,0.000692
2407.8602,0.000633
2409.7239,0.000425
2411.5876,0.000646
2413.4512,0.000931
2415.3149,0.000981
2417.1786,0.000815
2419.0423,0.000487
2420.9059,0.000361
2422.7696,0.000623
2424.6333,0.000792
2426.4969,0.000847
2428.3606,0.000863
2430.2243,0.000755
2432.0879,0.000871
2433.9516,0.001116
2435.8153,0.001194
2437.6789,0.001165
2439.5426,0.001080
2441.4063,0.000979
2443.2700,0.001033
2445.1336,0.001260
2446.9973,0.001498
2448.8610,0.001488
2450.7246,0.001414
2452.5883,0.001520
2454.4520,0.001434
2456.3156,0.001179
2458.1793,0.001082
2460.0430,0.001140
2461.9066,0.001188
2463.7703,0.001508
2465.6340,0.001718
2467.4976,0.001377
2469.3613,0.001380
2471.2250,0.001620
2473.0887,0.001653
2474.9523,0.001668
2476.8160,0.001631
2478.6797,0.001640
2480.5433,0.001580
2482.4070,0.001683
2484.2707,0.001793
2486.1343,0.001628
2487.9980,0.001805
2489.8617,0.002152
2491.7253,0.002211
2493.5890,0.002121
2495.4527,0.002276
2497.3164,0.002321
2499.1800,0.001951
2501.0437,0.001925
2502.9074,0.002178
2504.7710,0.002418
2506.6347,0.002477
2508.4984,0.002363
2510.3620,0.002406
2512.2257,0.002450
2514.0894,0.002577
2515.9530,0.002650
2517.8167,0.002692
2519.6804,0.002717
2521.5440,0.002644
2523.4077,0.002747
2525.2714,0.002872
2527.1351,0.002809
2528.9987,0.002707
2530.8624,0.002714
2532.7261,0.002675
2534.5897,0.002552
2536.4534,0.002732
2538.3171,0.002937
2540.1807,0.002991
2542.0444,0.003026
2543.9081,0.002916
2545.7717,0.003083
2547.6354,0.003456
2549.4991,0.003448
2551.3627,0.003197
2553.2264,0.002989
2555.0901,0.003457
2556.9538,0.004017
2558.8174,0.003860
2560.6811,0.003505
2562.5448,0.003524
2564.4084,0.003725
2566.2721,0.003722
2568.1358,0.003858
2569.9994,0.004104
2571.8631,0.004166
2573.7268,0.004137
2575.5904,0.004091
2577.4541,0.004205
2579.3178,0.004491
2581.1815,0.004684
2583.0451,0.004639
2584.9088,0.004460
2586.7725,0.004475
2588.6361,0.004674
2590.4998,0.004697
2592.3635,0.004637
2594.2271,0.004935
2596.0908,0.005367
2597.9545,0.005563
2599.8181,0.005275
2601.6818,0.005119
2603.5455,0.005320
2605.4091,0.005415
2607.2728,0.005654
2609.1365,0.005824
2611.0002,0.005729
2612.8638,0.005741
2614.7275,0.005957
2616.5912,0.006057
2618.4548,0.006063
2620.3185,0.006278
2622.1822,0.006455
2624.0458,0.006365
2625.9095,0.006361
2627.7732,0.006697
2629.6368,0.006890
2631.5005,0.006815
2633.3642,0.006887
2635.2279,0.006953
2637.0915,0.006997
2638.9552,0.007165
2640.8189,0.007321
2642.6825,0.007447
2644.5462,0.007632
2646.4099,0.007766
2648.2735,0.007751
2650.1372,0.007650
2652.0009,0.007677
2653.8645,0.007735
2655.7282,0.007812
2657.5919,0.008052
2659.4555,0.008146
2661.3192,0.008038
2663.1829,0.007951
2665.0466,0.008130
2666.9102,0.008349
2668.7739,0.008381
2670.6376,0.008450
2672.5012,0.008604
2674.3649,0.008651
2676.2286,0.008753
2678.0922,0.008991
2679.9559,0.008947
2681.8196,0.008879
2683.6832,0.009119
2685.5469,0.009254
2687.4106,0.009269
2689.2742,0.009382
2691.1379,0.009430
2693.0016,0.009529
2694.8653,0.009716
2696.7289,0.009790
2698.5926,0.009832
2700.4563,0.009957
2702.3199,0.010033
2704.1836,0.010068
2706.0473,0.010171
2707.9109,0.010279
2709.7746,0.010388
2711.6383,0.010477
2713.5019,0.010549
2715.3656,0.010610
2717.2293,0.010695
2719.0930,0.010923
2720.9566,0.011113
2722.8203,0.011098
2724.6840,0.011295
2726.5476,0.011690
2728.4113,0.011794
2730.2750,0.011699
2732.1386,0.011681
2734.0023,0.011710
2735.8660,0.011739
2737.7296,0.012009
2739.5933,0.012382
2741.4570,0.012404
2743.3206,0.012326
2745.1843,0.012435
2747.0480,0.012625
2748.9117,0.012840
2750.7753,0.012908
2752.6390,0.012981
2754.5027,0.013092
2756.3663,0.013214
2758.2300,0.013483
2760.0937,0.013711
2761.9573,0.013695
2763.8210,0.013593
2765.6847,0.013793
2767.5483,0.014098
2769.4120,0.014190
2771.2757,0.014281
2773.1394,0.014563
2775.0030,0.014679
2776.8667,0.014598
2778.7304,0.014632
2780.5940,0.014730
2782.4577,0.014958
2784.3214,0.015313
2786.1850,0.015666
2788.0487,0.015882
2789.9124,0.016019
2791.7760,0.016217
2793.6397,0.016402
2795.5034,0.016628
2797.3670,0.016837
2799.2307,0.016918
2801.0944,0.017072
2802.9581,0.017219
2804.8217,0.017260
2806.6854,0.017496
2808.5491,0.017830
2810.4127,0.018006
2812.2764,0.018318
2814.1401,0.018624
2816.0037,0.018797
2817.8674,0.018917
2819.7311,0.019006
2821.5947,0.019307
2823.4584,0.019571
2825.3221,0.019844
2827.1857,0.020268
2829.0494,0.020669
2830.9131,0.020970
2832.7768,0.021321
2834.6404,0.021722
2836.5041,0.022082
2838.3678,0.022577
2840.2314,0.023171
2842.0951,0.023777
2843.9588,0.024478
2845.8224,0.025424
2847.6861,0.026551
2849.5498,0.027174
2851.4134,0.027682
2853.2771,0.028190
2855.1408,0.027995
2857.0045,0.027498
2858.8681,0.027146
2860.7318,0.027033
2862.5955,0.026922
2864.4591,0.026690
2866.3228,0.026956
2868.1865,0.027358
2870.0501,0.027424
2871.9138,0.027635
2873.7775,0.027985
2875.6411,0.028193
2877.5048,0.028160
2879.3685,0.028116
2881.2321,0.028057
2883.0958,0.028091
2884.9595,0.028294
2886.8232,0.028515
2888.6868,0.028860
2890.5505,0.028971
2892.4142,0.029070
2894.2778,0.029513
2896.1415,0.029946
2898.0052,0.030125
2899.8688,0.030500
2901.7325,0.031092
2903.5962,0.031687
2905.4598,0.032271
2907.3235,0.032618
2909.1872,0.032963
2911.0509,0.033691
2912.9145,0.034453
2914.7782,0.034956
2916.6419,0.035772
2918.5055,0.036731
2920.3692,0.037205
2922.2329,0.037389
2924.0965,0.037476
2925.9602,0.037473
2927.8239,0.037183
2929.6875,0.036776
2931.5512,0.036423
2933.4149,0.035873
2935.2785,0.035227
2937.1422,0.034818
2939.0059,0.034308
2940.8696,0.033654
2942.7332,0.033149
2944.5969,0.032557
2946.4606,0.032008
2948.3242,0.031797
2950.1879,0.031868
2952.0516,0.032088
2953.9152,0.032194
2955.7789,0.032088
2957.6426,0.031716
2959.5062,0.031527
2961.3699,0.031481
2963.2336,0.031339
2965.0972,0.031315
2966.9609,0.031235
2968.8246,0.030865
2970.6883,0.030365
2972.5519,0.029976
2974.4156,0.029867
2976.2793,0.029761
2978.1429,0.029461
2980.0066,0.029254
2981.8703,0.029258
2983.7339,0.029092
2985.5976,0.028576
2987.4613,0.028337
2989.3249,0.028433
2991.1886,0.028291
2993.0523,0.028280
2994.9160,0.028536
2996.7796,0.028500
2998.6433,0.028249
3000.5070,0.028278
3002.3706,0.028445
3004.2343,0.028550
3006.0980,0.028616
3007.9616,0.028808
3009.8253,0.029209
3011.6890,0.029493
3013.5526,0.029607
3015.4163,0.029945
3017.2800,0.030255
3019.1436,0.030243
3021.0073,0.030191
3022.8710,0.030537
3024.7347,0.031084
3026.5983,0.031405
3028.4620,0.031551
3030.3257,0.031715
3032.1893,0.031981
3034.0530,0.032326
3035.9167,0.032785
3037.7803,0.033091
3039.6440,0.033248
3041.5077,0.033487
3043.3713,0.033678
3045.2350,0.033945
3047.0987,0.034348
3048.9624,0.034860
3050.8260,0.035229
3052.6897,0.035308
3054.5534,0.035417
3056.4170,0.035681
3058.2807,0.035821
3060.1444,0.036036
3062.0080,0.036421
3063.8717,0.036773
3065.7354,0.037127
3067.5990,0.037595
3069.4627,0.037849
3071.3264,0.038022
3073.1900,0.037977
3075.0537,0.037818
3076.9174,0.038105
3078.7811,0.038546
3080.6447,0.039010
3082.5084,0.039118
3084.3721,0.038867
3086.2357,0.039232
3088.0994,0.039569
3089.9631,0.039568
3091.8267,0.039562
3093.6904,0.039420
3095.5541,0.039743
3097.4177,0.040281
3099.2814,0.040399
3101.1451,0.040481
3103.0087,0.040719
3104.8724,0.040942
3106.7361,0.041033
3108.5998,0.041325
3110.4634,0.041706
3112.3271,0.041768
3114.1908,0.041933
3116.0544,0.042280
3117.9181,0.042493
3119.7818,0.042873
3121.6454,0.043085
3123.5091,0.042808
3125.3728,0.042820
3127.2364,0.043537
3129.1001,0.044300
3130.9638,0.044608
3132.8275,0.044616
3134.6911,0.044780
3136.5548,0.045048
3138.4185,0.045600
3140.2821,0.046225
3142.1458,0.046353
3144.0095,0.046663
3145.8731,0.047364
3147.7368,0.047651
3149.6005,0.047914
3151.4641,0.048425
3153.3278,0.048736
3155.1915,0.048826
3157.0551,0.048894
3158.9188,0.049147
3160.7825,0.049693
3162.6462,0.050276
3164.5098,0.050883
3166.3735,0.051192
3168.2372,0.051509
3170.1008,0.051858
3171.9645,0.051896
3173.8282,0.052148
3175.6918,0.052831
3177.5555,0.053221
3179.4192,0.053465
3181.2828,0.053905
3183.1465,0.054385
3185.0102,0.054645
3186.8739,0.054994
3188.7375,0.055111
3190.6012,0.055047
3192.4649,0.055479
3194.3285,0.056136
3196.1922,0.056467
3198.0559,0.056671
3199.9195,0.056797
3201.7832,0.056813
3203.6469,0.057121
3205.5105,0.057483
3207.3742,0.057651
3209.2379,0.057683
3211.1015,0.057715
3212.9652,0.058212
3214.8289,0.058679
3216.6926,0.058631
3218.5562,0.058272
3220.4199,0.058417
3222.2836,0.059218
3224.1472,0.059791
3226.0109,0.059662
3227.8746,0.059790
3229.7382,0.059862
3231.6019,0.059566
3233.4656,0.059684
3235.3292,0.060177
3237.1929,0.060330
3239.0566,0.060488
3240.9202,0.060549
3242.7839,0.060505
3244.6476,0.060818
3246.5113,0.061371
3248.3749,0.061321
3250.2386,0.061224
3252.1023,0.061521
3253.9659,0.061667
3255.8296,0.061877
3257.6933,0.062337
3259.5569,0.062439
3261.4206,0.062394
3263.2843,0.062386
3265.1479,0.062564
3267.0116,0.062637
3268.8753,0.062411
3270.7390,0.062399
3272.6026,0.062845
3274.4663,0.062834
3276.3300,0.062574
3278.1936,0.062613
3280.0573,0.062870
3281.9210,0.062594
3283.7846,0.061889
3285.6483,0.061881
3287.5120,0.062501
3289.3756,0.062415
3291.2393,0.061760
3293.1030,0.061574
3294.9666,0.061469
3296.8303,0.061039
3298.6940,0.061280
3300.5577,0.061469
3302.4213,0.060962
3304.2850,0.060633
3306.1487,0.060703
3308.0123,0.060441
3309.8760,0.060124
3311.7397,0.060244
3313.6033,0.060265
3315.4670,0.059848
3317.3307,0.059423
3319.1943,0.058911
3321.0580,0.058542
3322.9217,0.058898
3324.7854,0.059397
3326.6490,0.058933
3328.5127,0.058248
3330.3764,0.058345
3332.2400,0.058597
3334.1037,0.058228
3335.9674,0.058077
3337.8310,0.058168
3339.6947,0.058055
3341.5584,0.057716
3343.4220,0.057432
3345.2857,0.057186
3347.1494,0.056824
3349.0130,0.056827
3350.8767,0.057244
3352.7404,0.057231
3354.6041,0.056567
3356.4677,0.056231
3358.3314,0.056696
3360.1951,0.056647
3362.0587,0.056276
3363.9224,0.055944
3365.7861,0.055854
3367.6497,0.055698
3369.5134,0.055456
3371.3771,0.055080
3373.2407,0.054823
3375.1044,0.054695
3376.9681,0.054258
3378.8317,0.053544
3380.6954,0.053674
3382.5591,0.054087
3384.4228,0.053653
3386.2864,0.053249
3388.1501,0.053287
3390.0138,0.052978
3391.8774,0.052440
3393.7411,0.051927
3395.6048,0.051412
3397.4684,0.051412
3399.3321,0.051698
3401.1958,0.051279
3403.0594,0.050959
3404.9231,0.050951
3406.7868,0.051138
3408.6505,0.051136
3410.5141,0.050589
3412.3778,0.049950
3414.2415,0.049816
3416.1051,0.049538
3417.9688,0.049359
3419.8325,0.048940
3421.6961,0.048286
3423.5598,0.048020
3425.4235,0.048288
3427.2871,0.048423
3429.1508,0.048179
3431.0145,0.047482
3432.8781,0.046629
3434.7418,0.046440
3436.6055,0.046427
3438.4692,0.045794
3440.3328,0.045653
3442.1965,0.045639
3444.0602,0.045431
3445.9238,0.045157
3447.7875,0.044554
3449.6512,0.043869
3451.5148,0.043456
3453.3785,0.043226
3455.2422,0.042875
3457.1058,0.042384
3458.9695,0.042475
3460.8332,0.042246
3462.6969,0.041997
3464.5605,0.041793
3466.4242,0.040724
3468.2879,0.039919
3470.1515,0.039770
3472.0152,0.039261
3473.8789,0.038943
3475.7425,0.038603
3477.6062,0.038259
3479.4699,0.037693
3481.3335,0.037030
3483.1972,0.036852
3485.0609,0.036647
3486.9245,0.035805
3488.7882,0.034968
3490.6519,0.034480
3492.5156,0.033726
3494.3792,0.033363
3496.2429,0.033366
3498.1066,0.032939
3499.9702,0.032726
3501.8339,0.032494
3503.6976,0.031947
3505.5612,0.031249
3507.4249,0.030692
3509.2886,0.030197
3511.1522,0.029761
3513.0159,0.029202
3514.8796,0.028339
3516.7432,0.027535
3518.6069,0.027021
3520.4706,0.027307
3522.3343,0.027244
3524.1979,0.026347
3526.0616,0.025868
3527.9253,0.025670
3529.7889,0.025269
3531.6526,0.024763
3533.5163,0.024342
3535.3799,0.023610
3537.2436,0.022857
3539.1073,0.022403
3540.9709,0.021711
3542.8346,0.021296
3544.6983,0.021203
3546.5620,0.020250
3548.4256,0.019780
3550.2893,0.019510
3552.1530,0.018950
3554.0166,0.018710
3555.8803,0.018216
3557.7440,0.017784
3559.6076,0.017305
3561.4713,0.016664
3563.3350,0.016439
3565.1986,0.015687
3567.0623,0.014941
3568.9260,0.015224
3570.7896,0.014752
3572.6533,0.013784
3574.5170,0.013437
3576.3807,0.013052
3578.2443,0.012246
3580.1080,0.011650
3581.9717,0.011785
3583.8353,0.011370
3585.6990,0.010338
3587.5627,0.009580
3589.4263,0.009261
3591.2900,0.009391
3593.1537,0.009261
3595.0173,0.008623
3596.8810,0.008213
3598.7447,0.007896
3600.6084,0.007427
3602.4720,0.006801
3604.3357,0.006612
3606.1994,0.006627
3608.0630,0.005997
3609.9267,0.005381
3611.7904,0.004803
3613.6540,0.004322
3615.5177,0.004813
3617.3814,0.004564
3619.2450,0.003263
3621.1087,0.002618
3622.9724,0.003251
3624.8360,0.003421
3626.6997,0.002390
3628.5634,0.001133
3630.4271,0.000437
3632.2907,0.000662
3634.1544,0.000889
3636.0181,0.000355
3637.8817,0.000044
3639.7454,-0.000271
3641.6091,-0.000774
3643.4727,-0.000808
3645.3364,-0.001104
3647.2001,-0.002370
3649.0637,-0.003549
3650.9274,-0.004012
3652.7911,-0.003513
3654.6547,-0.002951
3656.5184,-0.003283
3658.3821,-0.003436
3660.2458,-0.003563
3662.1094,-0.003615
3663.9731,-0.003659
3665.8368,-0.004272
3667.7004,-0.004981
3669.5641,-0.005743
3671.4278,-0.006228
3673.2914,-0.005818
3675.1551,-0.006251
3677.0188,-0.007330
3678.8824,-0.006396
3680.7461,-0.005503
3682.6098,-0.005374
3684.4735,-0.005523
3686.3371,-0.006043
3688.2008,-0.006256
3690.0645,-0.006645
3691.9281,-0.007386
3693.7918,-0.007051
3695.6555,-0.006159
3697.5191,-0.006154
3699.3828,-0.006668
3701.2465,-0.007083
3703.1101,-0.007130
3704.9738,-0.006709
3706.8375,-0.006431
3708.7011,-0.006929
3710.5648,-0.007480
3712.4285,-0.007518
3714.2922,-0.007336
3716.1558,-0.006804
3718.0195,-0.006880
3719.8832,-0.007294
3721.7468,-0.007056
3723.6105,-0.006730
3725.4742,-0.006769
3727.3378,-0.007157
3729.2015,-0.007409
3731.0652,-0.007098
3732.9288,-0.007168
3734.7925,-0.007790
3736.6562,-0.008168
3738.5199,-0.007765
3740.3835,-0.006762
3742.2472,-0.006420
3744.1109,-0.007310
3745.9745,-0.008385
3747.8382,-0.007906
3749.7019,-0.007582
3751.5655,-0.007722
3753.4292,-0.007322
3755.2929,-0.006861
3757.1565,-0.006932
3759.0202,-0.007437
3760.8839,-0.007816
3762.7475,-0.007631
3764.6112,-0.006886
3766.4749,-0.006887
3768.3386,-0.007207
3770.2022,-0.007525
3772.0659,-0.007546
3773.9296,-0.006999
3775.7932,-0.006749
3777.6569,-0.007070
3779.5206,-0.007357
3781.3842,-0.007620
3783.2479,-0.007488
3785.1116,-0.007056
3786.9752,-0.007034
3788.8389,-0.007232
3790.7026,-0.007252
3792.5662,-0.006912
3794.4299,-0.006727
3796.2936,-0.006968
3798.1573,-0.007454
3800.0209,-0.007687
3801.8846,-0.008024
3803.7483,-0.008293
3805.6119,-0.007421
3807.4756,-0.007303
3809.3393,-0.007665
3811.2029,-0.007062
3813.0666,-0.006309
3814.9303,-0.006517
3816.7939,-0.007701
3818.6576,-0.007898
3820.5213,-0.007715
3822.3850,-0.008237
3824.2486,-0.007584
3826.1123,-0.006876
3827.9760,-0.006988
3829.8396,-0.007028
3831.7033,-0.006979
3833.5670,-0.006964
3835.4306,-0.006958
3837.2943,-0.007582
3839.1580,-0.007786
3841.0216,-0.007246
3842.8853,-0.007205
3844.7490,-0.007664
3846.6126,-0.007523
3848.4763,-0.006550
3850.3400,-0.006010
3852.2037,-0.006611
3854.0673,-0.008353
3855.9310,-0.009152
3857.7947,-0.007704
3859.6583,-0.007083
3861.5220,-0.007180
3863.3857,-0.007119
3865.2493,-0.007114
3867.1130,-0.007063
3868.9767,-0.007147
3870.8403,-0.007858
3872.7040,-0.007986
3874.5677,-0.007871
3876.4314,-0.007695
3878.2950,-0.006754
3880.1587,-0.006921
3882.0224,-0.007231
3883.8860,-0.006706
3885.7497,-0.006970
3887.6134,-0.007307
3889.4770,-0.006846
3891.3407,-0.006974
3893.2044,-0.007424
3895.0680,-0.007099
3896.9317,-0.006598
3898.7954,-0.006422
3900.6590,-0.006774
3902.5227,-0.007598
3904.3864,-0.008268
3906.2501,-0.007969
3908.1137,-0.007248
3909.9774,-0.006963
3911.8411,-0.006851
3913.7047,-0.006792
3915.5684,-0.006455
3917.4321,-0.006800
3919.2957,-0.007268
3921.1594,-0.006714
3923.0231,-0.006321
3924.8867,-0.006636
3926.7504,-0.006838
3928.6141,-0.006333
3930.4777,-0.006421
3932.3414,-0.007180
3934.2051,-0.007623
3936.0688,-0.007444
3937.9324,-0.007086
3939.7961,-0.006918
3941.6598,-0.006878
3943.5234,-0.006732
3945.3871,-0.006714
3947.2508,-0.006673
3949.1144,-0.006918
3950.9781,-0.007242
3952.8418,-0.006839
3954.7054,-0.006523
3956.5691,-0.007097
3958.4328,-0.007315
3960.2965,-0.006871
3962.1601,-0.006744
3964.0238,-0.006818
3965.8875,-0.006780
3967.7511,-0.006929
3969.6148,-0.007119
3971.4785,-0.006774
3973.3421,-0.006563
3975.2058,-0.006718
3977.0695,-0.006936
3978.9331,-0.006936
3980.7968,-0.007019
3982.6605,-0.007112
3984.5241,-0.006870
3986.3878,-0.006652
3988.2515,-0.006742
3990.1152,-0.007095
3991.9788,-0.007021
3993.8425,-0.006727
3995.7062,-0.006335
3997.5698,-0.006204
3999.4335,-0.006520
