Wavenumber,Intensity
650.4205,0.055654
652.2841,0.053576
654.1478,0.055112
656.0115,0.054405
657.8751,0.054659
659.7388,0.055942
661.6025,0.055136
663.4661,0.054050
665.3298,0.052289
667.1935,0.050229
669.0571,0.051090
670.9208,0.052803
672.7845,0.052953
674.6481,0.052593
676.5118,0.052240
678.3755,0.051161
680.2392,0.050865
682.1028,0.050474
683.9665,0.049868
685.8302,0.048857
687.6938,0.050340
689.5575,0.050943
691.4212,0.049738
693.2848,0.048358
695.1485,0.047885
697.0122,0.047671
698.8758,0.047483
700.7395,0.048079
702.6032,0.048137
704.4669,0.046857
706.3305,0.046159
708.1942,0.045367
710.0579,0.044882
711.9215,0.044450
713.7852,0.043655
715.6489,0.043244
717.5125,0.043086
719.3762,0.042915
721.2399,0.041802
723.1035,0.040881
724.9672,0.040584
726.8309,0.039929
728.6945,0.039335
730.5582,0.039137
732.4219,0.039232
734.2856,0.038559
736.1492,0.038686
738.0129,0.039241
739.8766,0.038697
741.7402,0.038021
743.6039,0.038111
745.4676,0.037891
747.3312,0.037440
749.1949,0.037012
751.0586,0.036716
752.9222,0.036610
754.7859,0.036180
756.6496,0.035812
758.5132,0.035786
760.3769,0.035451
762.2406,0.035378
764.1043,0.035367
765.9679,0.034920
767.8316,0.034406
769.6953,0.034198
771.5589,0.034049
773.4226,0.033679
775.2863,0.033720
777.1499,0.033810
779.0136,0.033364
780.8773,0.033159
782.7409,0.033032
784.6046,0.032831
786.4683,0.032399
788.3320,0.032220
790.1956,0.031963
792.0593,0.031256
793.9230,0.030803
795.7866,0.030972
797.6503,0.030867
799.5140,0.030493
801.3776,0.030490
803.2413,0.030456
805.1050,0.030621
806.9686,0.030764
808.8323,0.030614
810.6960,0.030186
812.5596,0.029875
814.4233,0.029721
816.2870,0.029504
818.1507,0.029008
820.0143,0.028665
821.8780,0.028399
823.7417,0.028045
825.6053,0.027595
827.4690,0.027289
829.3327,0.027200
831.1963,0.026886
833.0600,0.026573
834.9237,0.026137
836.7873,0.026137
838.6510,0.026127
840.5147,0.025751
842.3784,0.025517
844.2420,0.025266
846.1057,0.025039
847.9694,0.025075
849.8330,0.024925
851.6967,0.024955
853.5604,0.025129
855.4240,0.024941
857.2877,0.024788
859.1514,0.024938
861.0150,0.025043
862.8787,0.025177
864.7424,0.025437
866.6060,0.025824
868.4697,0.026089
870.3334,0.026078
872.1971,0.026024
874.0607,0.025946
875.9244,0.025853
877.7881,0.025678
879.6517,0.025345
881.5154,0.024987
883.3791,0.024797
885.2427,0.024728
887.1064,0.024844
888.9701,0.024909
890.8337,0.024802
892.6974,0.024866
894.5611,0.025003
896.4247,0.025063
898.2884,0.024989
900.1521,0.024891
902.0158,0.024845
903.8794,0.024929
905.7431,0.025027
907.6068,0.025154
909.4704,0.025324
911.3341,0.025529
913.1978,0.025762
915.0614,0.026027
916.9251,0.026190
918.7888,0.026322
920.6524,0.026370
922.5161,0.026351
924.3798,0.026425
926.2435,0.026465
928.1071,0.026504
929.9708,0.026493
931.8345,0.026492
933.6981,0.026650
935.5618,0.026840
937.4255,0.026999
939.2891,0.027172
941.1528,0.027399
943.0165,0.027667
944.8801,0.027984
946.7438,0.028222
948.6075,0.028251
950.4711,0.028384
952.3348,0.028505
954.1985,0.028623
956.0622,0.028977
957.9258,0.029484
959.7895,0.030127
961.6532,0.030846
963.5168,0.031434
965.3805,0.032013
967.2442,0.032364
969.1078,0.032468
970.9715,0.032567
972.8352,0.032698
974.6988,0.032754
976.5625,0.032907
978.4262,0.033270
980.2899,0.033694
982.1535,0.034109
984.0172,0.034470
985.8809,0.034901
987.7445,0.035453
989.6082,0.036014
991.4719,0.036506
993.3355,0.037024
995.1992,0.037672
997.0629,0.038367
998.9265,0.038848
1000.7902,0.039214
1002.6539,0.039700
1004.5175,0.040428
1006.3812,0.041217
1008.2449,0.042083
1010.1086,0.043066
1011.9722,0.044135
1013.8359,0.045186
1015.6996,0.046243
1017.5632,0.047161
1019.4269,0.047763
1021.2906,0.048361
1023.1542,0.048918
1025.0179,0.049365
1026.8816,0.049794
1028.7452,0.050094
1030.6089,0.050332
1032.4726,0.050521
1034.3362,0.050589
1036.1999,0.050569
1038.0636,0.050538
1039.9273,0.050420
1041.7909,0.050258
1043.6546,0.049997
1045.5183,0.049738
1047.3819,0.049614
1049.2456,0.049579
1051.1093,0.049436
1052.9729,0.049424
1054.8366,0.049538
1056.7003,0.049518
1058.5639,0.049511
1060.4276,0.049597
1062.2913,0.049658
1064.1550,0.049699
1066.0186,0.049750
1067.8823,0.049847
1069.7460,0.049822
1071.6096,0.049577
1073.4733,0.049337
1075.3370,0.049034
1077.2006,0.048382
1079.0643,0.047538
1080.9280,0.046528
1082.7916,0.045388
1084.6553,0.044247
1086.5190,0.043193
1088.3826,0.042219
1090.2463,0.041367
1092.1100,0.040710
1093.9737,0.040168
1095.8373,0.039608
1097.7010,0.039114
1099.5647,0.038813
1101.4283,0.038555
1103.2920,0.038283
1105.1557,0.038168
1107.0193,0.038082
1108.8830,0.038004
1110.7467,0.037958
1112.6103,0.037932
1114.4740,0.037848
1116.3377,0.037789
1118.2014,0.037703
1120.0650,0.037464
1121.9287,0.037163
1123.7924,0.036989
1125.6560,0.036852
1127.5197,0.036593
1129.3834,0.036216
1131.2470,0.035817
1133.1107,0.035386
1134.9744,0.034918
1136.8380,0.034506
1138.7017,0.034224
1140.5654,0.033974
1142.4290,0.033802
1144.2927,0.033837
1146.1564,0.033915
1148.0201,0.033966
1149.8837,0.034079
1151.7474,0.034227
1153.6111,0.034343
1155.4747,0.034357
1157.3384,0.034282
1159.2021,0.034128
1161.0657,0.033921
1162.9294,0.033636
1164.7931,0.033244
1166.6567,0.032739
1168.5204,0.032120
1170.3841,0.031487
1172.2477,0.030786
1174.1114,0.029921
1175.9751,0.029201
1177.8388,0.028753
1179.7024,0.028398
1181.5661,0.028218
1183.4298,0.028267
1185.2934,0.028368
1187.1571,0.028548
1189.0208,0.028853
1190.8844,0.029116
1192.7481,0.029369
1194.6118,0.029776
1196.4754,0.030275
1198.3391,0.030768
1200.2028,0.031242
1202.0665,0.031676
1203.9301,0.032003
1205.7938,0.032268
1207.6575,0.032566
1209.5211,0.032747
1211.3848,0.032837
1213.2485,0.033067
1215.1121,0.033284
1216.9758,0.033501
1218.8395,0.033910
1220.7031,0.034495
1222.5668,0.035109
1224.4305,0.035627
1226.2941,0.036073
1228.1578,0.036603
1230.0215,0.037010
1231.8852,0.037245
1233.7488,0.037518
1235.6125,0.037754
1237.4762,0.037904
1239.3398,0.037925
1241.2035,0.037830
1243.0672,0.037706
1244.9308,0.037446
1246.7945,0.037025
1248.6582,0.036657
1250.5218,0.036278
1252.3855,0.035923
1254.2492,0.035651
1256.1129,0.035352
1257.9765,0.035061
1259.8402,0.034889
1261.7039,0.034781
1263.5675,0.034565
1265.4312,0.034363
1267.2949,0.034286
1269.1585,0.034207
1271.0222,0.034091
1272.8859,0.033971
1274.7495,0.033858
1276.6132,0.033760
1278.4769,0.033710
1280.3405,0.033653
1282.2042,0.033570
1284.0679,0.033552
1285.9316,0.033474
1287.7952,0.033356
1289.6589,0.033334
1291.5226,0.033438
1293.3862,0.033590
1295.2499,0.033757
1297.1136,0.034001
1298.9772,0.034286
1300.8409,0.034633
1302.7046,0.034930
1304.5682,0.035044
1306.4319,0.035290
1308.2956,0.035641
1310.1592,0.035768
1312.0229,0.035869
1313.8866,0.035974
1315.7503,0.035924
1317.6139,0.035846
1319.4776,0.035852
1321.3413,0.035728
1323.2049,0.035570
1325.0686,0.035469
1326.9323,0.035365
1328.7959,0.035285
1330.6596,0.035279
1332.5233,0.035230
1334.3869,0.035079
1336.2506,0.034987
1338.1143,0.035253
1339.9780,0.035708
1341.8416,0.035763
1343.7053,0.035599
1345.5690,0.035456
1347.4326,0.035264
1349.2963,0.035085
1351.1600,0.034992
1353.0236,0.034946
1354.8873,0.035026
1356.7510,0.035073
1358.6146,0.035086
1360.4783,0.035361
1362.3420,0.036192
1364.2056,0.036910
1366.0693,0.037151
1367.9330,0.037599
1369.7967,0.038153
1371.6603,0.038425
1373.5240,0.039217
1375.3877,0.040107
1377.2513,0.040291
1379.1150,0.040528
1380.9787,0.040710
1382.8423,0.040774
1384.7060,0.040779
1386.5697,0.041235
1388.4333,0.041817
1390.2970,0.041609
1392.1607,0.041341
1394.0244,0.041748
1395.8880,0.042183
1397.7517,0.042386
1399.6154,0.042866
1401.4790,0.042610
1403.3427,0.042396
1405.2064,0.042536
1407.0700,0.042311
1408.9337,0.042021
1410.7974,0.041890
1412.6610,0.041440
1414.5247,0.040759
1416.3884,0.040288
1418.2520,0.040797
1420.1157,0.041404
1421.9794,0.041012
1423.8431,0.041005
1425.7067,0.041168
1427.5704,0.041328
1429.4341,0.042065
1431.2977,0.042602
1433.1614,0.042579
1435.0251,0.043111
1436.8887,0.044657
1438.7524,0.045221
1440.6161,0.045111
1442.4797,0.045073
1444.3434,0.044874
1446.2071,0.044720
1448.0707,0.044892
1449.9344,0.044557
1451.7981,0.043784
1453.6618,0.042622
1455.5254,0.041915
1457.3891,0.042777
1459.2528,0.042156
1461.1164,0.040230
1462.9801,0.038976
1464.8438,0.038635
1466.7074,0.037836
1468.5711,0.036427
1470.4348,0.035314
1472.2984,0.035248
1474.1621,0.035259
1476.0258,0.034845
1477.8895,0.034242
1479.7531,0.033825
1481.6168,0.033899
1483.4805,0.033718
1485.3441,0.033551
1487.2078,0.034296
1489.0715,0.036113
1490.9351,0.037711
1492.7988,0.037547
1494.6625,0.037793
1496.5261,0.039824
1498.3898,0.041964
1500.2535,0.042912
1502.1171,0.042712
1503.9808,0.042372
1505.8445,0.044592
1507.7082,0.049782
1509.5718,0.050738
1511.4355,0.050772
1513.2992,0.051026
1515.1628,0.051378
1517.0265,0.052127
1518.8902,0.052220
1520.7538,0.052934
1522.6175,0.054308
1524.4812,0.054422
1526.3448,0.054976
1528.2085,0.055322
1530.0722,0.054796
1531.9359,0.054636
1533.7995,0.055399
1535.6632,0.054688
1537.5269,0.053447
1539.3905,0.053468
1541.2542,0.054903
1543.1179,0.055052
1544.9815,0.054674
1546.8452,0.053621
1548.7089,0.052706
1550.5725,0.051626
1552.4362,0.050269
1554.2999,0.048932
1556.1635,0.047101
1558.0272,0.046367
1559.8909,0.047277
1561.7546,0.046356
1563.6182,0.045222
1565.4819,0.044067
1567.3456,0.042971
1569.2092,0.042666
1571.0729,0.042149
1572.9366,0.041066
1574.8002,0.040734
1576.6639,0.041483
1578.5276,0.041525
1580.3912,0.041181
1582.2549,0.041078
1584.1186,0.041345
1585.9822,0.041873
1587.8459,0.042447
1589.7096,0.043235
1591.5733,0.044012
1593.4369,0.044798
1595.3006,0.045953
1597.1643,0.047061
1599.0279,0.048073
1600.8916,0.049181
1602.7553,0.050319
1604.6189,0.051529
1606.4826,0.052815
1608.3463,0.054253
1610.2099,0.055619
1612.0736,0.056619
1613.9373,0.057394
1615.8010,0.058953
1617.6646,0.060924
1619.5283,0.061298
1621.3920,0.061474
1623.2556,0.062473
1625.1193,0.063271
1626.9830,0.063810
1628.8466,0.064117
1630.7103,0.063846
1632.5740,0.063025
1634.4376,0.062661
1636.3013,0.063089
1638.1650,0.063032
1640.0286,0.062316
1641.8923,0.061228
1643.7560,0.059934
1645.6197,0.059055
1647.4833,0.058475
1649.3470,0.057105
1651.2107,0.055636
1653.0743,0.055062
1654.9380,0.054779
1656.8017,0.053718
1658.6653,0.051980
1660.5290,0.050226
1662.3927,0.048787
1664.2563,0.047161
1666.1200,0.045438
1667.9837,0.043768
1669.8474,0.041889
1671.7110,0.040058
1673.5747,0.038550
1675.4384,0.036966
1677.3020,0.035077
1679.1657,0.033464
1681.0294,0.031378
1682.8930,0.029043
1684.7567,0.026436
1686.6204,0.024971
1688.4840,0.023683
1690.3477,0.021754
1692.2114,0.019538
1694.0750,0.017398
1695.9387,0.014685
1697.8024,0.012724
1699.6661,0.011256
1701.5297,0.009416
1703.3934,0.008846
1705.2571,0.008042
1707.1207,0.006915
1708.9844,0.006271
1710.8481,0.005583
1712.7117,0.005106
1714.5754,0.004699
1716.4391,0.003947
1718.3027,0.003054
1720.1664,0.003157
1722.0301,0.003268
1723.8937,0.002852
1725.7574,0.002538
1727.6211,0.002686
1729.4848,0.002607
1731.3484,0.002168
1733.2121,0.001494
1735.0758,0.000917
1736.9394,0.001348
1738.8031,0.001520
1740.6668,0.001132
1742.5304,0.000927
1744.3941,0.000850
1746.2578,0.000658
1748.1214,0.000222
1749.9851,-0.000238
1751.8488,-0.000486
1753.7125,-0.000174
1755.5761,-0.000124
1757.4398,-0.000239
1759.3035,-0.000003
1761.1671,-0.000300
1763.0308,-0.000679
1764.8945,-0.000461
1766.7581,-0.000354
1768.6218,-0.000471
1770.4855,-0.000842
1772.3491,-0.001132
1774.2128,-0.000957
1776.0765,-0.000693
1777.9401,-0.000469
1779.8038,-0.000342
1781.6675,-0.000428
1783.5312,-0.000612
1785.3948,-0.000864
1787.2585,-0.000705
1789.1222,-0.000496
1790.9858,-0.000774
1792.8495,-0.001111
1794.7132,-0.000839
1796.5768,-0.000659
1798.4405,-0.000708
1800.3042,-0.000870
1802.1678,-0.001077
1804.0315,-0.001051
1805.8952,-0.000746
1807.7589,-0.000685
1809.6225,-0.000894
1811.4862,-0.000965
1813.3499,-0.000810
1815.2135,-0.000845
1817.0772,-0.001100
1818.9409,-0.001145
1820.8045,-0.000915
1822.6682,-0.000722
1824.5319,-0.000736
1826.3955,-0.000882
1828.2592,-0.000980
1830.1229,-0.001266
1831.9865,-0.001148
1833.8502,-0.000948
1835.7139,-0.000928
1837.5776,-0.000937
1839.4412,-0.000663
1841.3049,-0.000577
1843.1686,-0.001027
1845.0322,-0.001219
1846.8959,-0.001053
1848.7596,-0.001008
1850.6232,-0.000836
1852.4869,-0.000668
1854.3506,-0.000602
1856.2142,-0.000900
1858.0779,-0.001028
1859.9416,-0.000935
1861.8052,-0.000832
1863.6689,-0.000781
1865.5326,-0.000845
1867.3963,-0.001049
1869.2599,-0.001297
1871.1236,-0.001307
1872.9873,-0.000806
1874.8509,-0.000281
1876.7146,-0.000268
1878.5783,-0.000567
1880.4419,-0.000747
1882.3056,-0.000803
1884.1693,-0.000794
1886.0329,-0.000610
1887.8966,-0.000248
1889.7603,-0.000343
1891.6240,-0.000622
1893.4876,-0.000830
1895.3513,-0.000422
1897.2150,-0.000526
1899.0786,-0.001032
1900.9423,-0.000847
1902.8060,-0.000633
1904.6696,-0.000769
1906.5333,-0.000806
1908.3970,-0.000942
1910.2606,-0.000931
1912.1243,-0.000777
1913.9880,-0.000677
1915.8516,-0.000915
1917.7153,-0.001521
1919.5790,-0.002019
1921.4427,-0.001660
1923.3063,-0.000906
1925.1700,-0.000891
1927.0337,-0.000906
1928.8973,-0.000912
1930.7610,-0.001045
1932.6247,-0.000955
1934.4883,-0.000633
1936.3520,-0.000691
1938.2157,-0.001716
1940.0793,-0.002084
1941.9430,-0.001559
1943.8067,-0.001178
1945.6704,-0.001496
1947.5340,-0.001974
1949.3977,-0.002436
1951.2614,-0.002294
1953.1250,-0.002181
1954.9887,-0.001807
1956.8524,-0.001383
1958.7160,-0.001716
1960.5797,-0.002876
1962.4434,-0.003043
1964.3070,-0.002561
1966.1707,-0.001864
1968.0344,-0.001502
1969.8980,-0.001632
1971.7617,-0.001434
1973.6254,-0.002321
1975.4891,-0.003361
1977.3527,-0.002090
1979.2164,-0.000261
1981.0801,0.000086
1982.9437,-0.000527
1984.8074,-0.001753
1986.6711,-0.002415
1988.5347,-0.001999
1990.3984,-0.001376
1992.2621,-0.001039
1994.1257,-0.000689
1995.9894,-0.000130
1997.8531,-0.000549
1999.7167,-0.002272
2001.5804,-0.002857
2003.4441,-0.001853
2005.3078,-0.001987
2007.1714,-0.002531
2009.0351,-0.001999
2010.8988,-0.002059
2012.7624,-0.002465
2014.6261,-0.002169
2016.4898,-0.002986
2018.3534,-0.002437
2020.2171,-0.001703
2022.0808,-0.001884
2023.9444,-0.001324
2025.8081,-0.001912
2027.6718,-0.002920
2029.5355,-0.002443
2031.3991,-0.001589
2033.2628,-0.000948
2035.1265,-0.000671
2036.9901,-0.000046
2038.8538,0.000096
2040.7175,-0.000202
2042.5811,-0.000754
2044.4448,-0.000715
2046.3085,-0.000320
2048.1721,0.000248
2050.0358,0.000895
2051.8995,0.001132
2053.7631,0.000896
2055.6268,0.001055
2057.4905,0.001410
2059.3542,0.001523
2061.2178,0.001101
2063.0815,0.000444
2064.9452,0.000415
2066.8088,0.000961
2068.6725,0.001501
2070.5362,0.002049
2072.3998,0.001562
2074.2635,0.001040
2076.1272,0.001106
2077.9908,0.001097
2079.8545,0.001075
2081.7182,0.001046
2083.5819,0.000737
2085.4455,0.000668
2087.3092,0.000727
2089.1729,0.000296
2091.0365,-0.000144
2092.9002,-0.000010
2094.7639,0.000414
2096.6275,0.000699
2098.4912,0.000367
2100.3549,0.000005
2102.2185,0.000276
2104.0822,0.000070
2105.9459,-0.000293
2107.8095,0.000366
2109.6732,0.001005
2111.5369,0.001266
2113.4006,0.000525
2115.2642,-0.000366
2117.1279,-0.000016
2118.9916,0.000183
2120.8552,-0.000266
2122.7189,-0.000236
2124.5826,-0.000175
2126.4462,-0.000607
2128.3099,-0.000633
2130.1736,-0.000198
2132.0372,-0.000208
2133.9009,-0.000582
2135.7646,-0.000626
2137.6282,-0.001222
2139.4919,-0.002321
2141.3556,-0.002367
2143.2193,-0.002271
2145.0829,-0.001916
2146.9466,-0.001208
2148.8103,-0.001727
2150.6739,-0.002636
2152.5376,-0.002668
2154.4013,-0.004068
2156.2649,-0.005012
2158.1286,-0.003977
2159.9923,-0.001509
2161.8559,0.000831
2163.7196,0.000475
2165.5833,-0.002012
2167.4470,-0.002443
2169.3106,-0.001273
2171.1743,-0.000650
2173.0380,-0.000342
2174.9016,-0.001156
2176.7653,-0.001749
2178.6290,-0.001156
2180.4926,-0.001084
2182.3563,-0.000789
2184.2200,-0.000207
2186.0836,0.000406
2187.9473,0.000466
2189.8110,-0.000107
2191.6746,-0.000552
2193.5383,-0.000568
2195.4020,-0.001031
2197.2657,-0.000251
2199.1293,0.001593
2200.9930,0.000987
2202.8567,-0.000421
2204.7203,-0.000831
2206.5840,-0.000710
2208.4477,0.000083
2210.3113,-0.000087
2212.1750,-0.000201
2214.0387,0.000611
2215.9023,0.001157
2217.7660,0.000827
2219.6297,0.001128
2221.4934,0.000492
2223.3570,-0.000713
2225.2207,-0.000259
2227.0844,0.000160
2228.9480,0.000102
2230.8117,0.000235
2232.6754,0.000650
2234.5390,0.001412
2236.4027,0.001484
2238.2664,0.001522
2240.1300,0.001742
2241.9937,0.001549
2243.8574,0.000817
2245.7210,0.000175
2247.5847,-0.000150
2249.4484,0.000364
2251.3121,0.001416
2253.1757,0.001980
2255.0394,0.001494
2256.9031,0.001208
2258.7667,0.001409
2260.6304,0.001406
2262.4941,0.001240
2264.3577,0.001270
2266.2214,0.001907
2268.0851,0.001992
2269.9487,0.001160
2271.8124,0.001279
2273.6761,0.001846
2275.5397,0.002056
2277.4034,0.002103
2279.2671,0.002195
2281.1308,0.002504
2282.9944,0.002558
2284.8581,0.002343
2286.7218,0.002234
2288.5854,0.002595
2290.4491,0.002841
2292.3128,0.002617
2294.1764,0.002430
2296.0401,0.002288
2297.9038,0.002248
2299.7674,0.002234
2301.6311,0.002327
2303.4948,0.002287
2305.3585,0.002314
2307.2221,0.002412
2309.0858,0.002095
2310.9495,0.001917
2312.8131,0.001900
2314.6768,0.001901
2316.5405,0.002136
2318.4041,0.002348
2320.2678,0.002311
2322.1315,0.002466
2323.9951,0.002705
2325.8588,0.002442
2327.7225,0.001852
2329.5861,0.001304
2331.4498,0.001099
2333.3135,0.001014
2335.1772,0.001101
2337.0408,0.001213
2338.9045,0.001601
2340.7682,0.001845
2342.6318,0.001566
2344.4955,0.001439
2346.3592,0.001850
2348.2228,0.002021
2350.0865,0.001445
2351.9502,0.000772
2353.8138,0.000730
2355.6775,0.000755
2357.5412,0.000455
2359.4049,0.000539
2361.2685,0.000883
2363.1322,0.001180
2364.9959,0.001332
2366.8595,0.001666
2368.7232,0.002221
2370.5869,0.002237
2372.4505,0.002308
2374.3142,0.002441
2376.1779,0.002222
2378.0415,0.002504
2379.9052,0.002680
2381.7689,0.002370
2383.6325,0.002354
2385.4962,0.002249
2387.3599,0.002173
2389.2236,0.002425
2391.0872,0.002468
2392.9509,0.002276
2394.8146,0.002153
2396.6782,0.002267
2398.5419,0.002313
2400.4056,0.002203
2402.2692,0.002341
2404.1329,0.002387
2405.9966,0.002238
2407.8602,0.002489
2409.7239,0.002711
2411.5876,0.002444
2413.4512,0.002455
2415.3149,0.002730
2417.1786,0.002705
2419.0423,0.002485
2420.9059,0.002508
2422.7696,0.002800
2424.6333,0.002944
2426.4969,0.002969
2428.3606,0.003013
2430.2243,0.002910
2432.0879,0.002639
2433.9516,0.002609
2435.8153,0.002958
2437.6789,0.003327
2439.5426,0.003429
2441.4063,0.003082
2443.2700,0.002917
2445.1336,0.003296
2446.9973,0.003387
2448.8610,0.003257
2450.7246,0.003347
2452.5883,0.003318
2454.4520,0.003208
2456.3156,0.003333
2458.1793,0.003144
2460.0430,0.002719
2461.9066,0.002616
2463.7703,0.002951
2465.6340,0.003454
2467.4976,0.003450
2469.3613,0.003287
2471.2250,0.003337
2473.0887,0.003266
2474.9523,0.003309
2476.8160,0.003451
2478.6797,0.003324
2480.5433,0.003219
2482.4070,0.003564
2484.2707,0.003888
2486.1343,0.003626
2487.9980,0.003493
2489.8617,0.003693
2491.7253,0.003677
2493.5890,0.003615
2495.4527,0.003773
2497.3164,0.004060
2499.1800,0.004293
2501.0437,0.004343
2502.9074,0.004272
2504.7710,0.004198
2506.6347,0.003999
2508.4984,0.003757
2510.3620,0.003937
2512.2257,0.003900
2514.0894,0.003633
2515.9530,0.003937
2517.8167,0.004116
2519.6804,0.004175
2521.5440,0.004375
2523.4077,0.004232
2525.2714,0.003953
2527.1351,0.004002
2528.9987,0.004364
2530.8624,0.004421
2532.7261,0.004540
2534.5897,0.004677
2536.4534,0.004369
2538.3171,0.004442
2540.1807,0.004876
2542.0444,0.004692
2543.9081,0.004200
2545.7717,0.004250
2547.6354,0.004560
2549.4991,0.004823
2551.3627,0.004664
2553.2264,0.004443
2555.0901,0.004734
2556.9538,0.004992
2558.8174,0.005229
2560.6811,0.005226
2562.5448,0.004907
2564.4084,0.004790
2566.2721,0.004958
2568.1358,0.005089
2569.9994,0.004899
2571.8631,0.005012
2573.7268,0.005576
2575.5904,0.005514
2577.4541,0.005281
2579.3178,0.005489
2581.1815,0.005656
2583.0451,0.005598
2584.9088,0.005620
2586.7725,0.005808
2588.6361,0.005630
2590.4998,0.005394
2592.3635,0.005551
2594.2271,0.005813
2596.0908,0.005979
2597.9545,0.006029
2599.8181,0.006072
2601.6818,0.006322
2603.5455,0.006435
2605.4091,0.006315
2607.2728,0.006370
2609.1365,0.006529
2611.0002,0.006499
2612.8638,0.006411
2614.7275,0.006578
2616.5912,0.006658
2618.4548,0.006705
2620.3185,0.006755
2622.1822,0.006942
2624.0458,0.007127
2625.9095,0.007149
2627.7732,0.007294
2629.6368,0.007225
2631.5005,0.007038
2633.3642,0.007145
2635.2279,0.007176
2637.0915,0.006999
2638.9552,0.007109
2640.8189,0.007426
2642.6825,0.007559
2644.5462,0.007641
2646.4099,0.007733
2648.2735,0.007668
2650.1372,0.007563
2652.0009,0.007520
2653.8645,0.007634
2655.7282,0.007776
2657.5919,0.007732
2659.4555,0.007634
2661.3192,0.007473
2663.1829,0.007402
2665.0466,0.007516
2666.9102,0.007725
2668.7739,0.007820
2670.6376,0.007704
2672.5012,0.007621
2674.3649,0.007715
2676.2286,0.007887
2678.0922,0.007920
2679.9559,0.007869
2681.8196,0.007942
2683.6832,0.008010
2685.5469,0.007925
2687.4106,0.008031
2689.2742,0.008306
2691.1379,0.008384
2693.0016,0.008253
2694.8653,0.008216
2696.7289,0.008347
2698.5926,0.008501
2700.4563,0.008591
2702.3199,0.008561
2704.1836,0.008536
2706.0473,0.008620
2707.9109,0.008827
2709.7746,0.008780
2711.6383,0.008649
2713.5019,0.008746
2715.3656,0.008904
2717.2293,0.009125
2719.0930,0.009170
2720.9566,0.009028
2722.8203,0.009066
2724.6840,0.009256
2726.5476,0.009420
2728.4113,0.009544
2730.2750,0.009667
2732.1386,0.009814
2734.0023,0.009870
2735.8660,0.009818
2737.7296,0.009922
2739.5933,0.010131
2741.4570,0.010025
2743.3206,0.009869
2745.1843,0.010063
2747.0480,0.010219
2748.9117,0.010272
2750.7753,0.010391
2752.6390,0.010482
2754.5027,0.010492
2756.3663,0.010503
2758.2300,0.010700
2760.0937,0.010844
2761.9573,0.010768
2763.8210,0.010697
2765.6847,0.010814
2767.5483,0.011044
2769.4120,0.011150
2771.2757,0.011142
2773.1394,0.011181
2775.0030,0.011361
2776.8667,0.011522
2778.7304,0.011605
2780.5940,0.011614
2782.4577,0.011578
2784.3214,0.011610
2786.1850,0.011879
2788.0487,0.012175
2789.9124,0.012198
2791.7760,0.012065
2793.6397,0.012059
2795.5034,0.012292
2797.3670,0.012567
2799.2307,0.012609
2801.0944,0.012524
2802.9581,0.012690
2804.8217,0.012937
2806.6854,0.012815
2808.5491,0.012662
2810.4127,0.012973
2812.2764,0.013250
2814.1401,0.013239
2816.0037,0.013293
2817.8674,0.013290
2819.7311,0.013409
2821.5947,0.013645
2823.4584,0.013751
2825.3221,0.013901
2827.1857,0.013927
2829.0494,0.013988
2830.9131,0.014113
2832.7768,0.013926
2834.6404,0.013901
2836.5041,0.014355
2838.3678,0.014788
2840.2314,0.014929
2842.0951,0.015106
2843.9588,0.015293
2845.8224,0.015437
2847.6861,0.015655
2849.5498,0.015903
2851.4134,0.016049
2853.2771,0.015972
2855.1408,0.016097
2857.0045,0.016313
2858.8681,0.016286
2860.7318,0.016406
2862.5955,0.016655
2864.4591,0.016825
2866.3228,0.017015
2868.1865,0.017241
2870.0501,0.017558
2871.9138,0.017935
2873.7775,0.018209
2875.6411,0.018308
2877.5048,0.018202
2879.3685,0.017914
2881.2321,0.017677
2883.0958,0.017590
2884.9595,0.017621
2886.8232,0.017808
2888.6868,0.017941
2890.5505,0.017694
2892.4142,0.017375
2894.2778,0.017365
2896.1415,0.017603
2898.0052,0.017814
2899.8688,0.018018
2901.7325,0.018283
2903.5962,0.018375
2905.4598,0.018497
2907.3235,0.018752
2909.1872,0.018853
2911.0509,0.018960
2912.9145,0.019105
2914.7782,0.019207
2916.6419,0.019606
2918.5055,0.020026
2920.3692,0.020277
2922.2329,0.020513
2924.0965,0.020633
2925.9602,0.020538
2927.8239,0.020385
2929.6875,0.020341
2931.5512,0.020436
2933.4149,0.020546
2935.2785,0.020405
2937.1422,0.020068
2939.0059,0.019964
2940.8696,0.020041
2942.7332,0.019897
2944.5969,0.019881
2946.4606,0.019954
2948.3242,0.019885
2950.1879,0.019956
2952.0516,0.019990
2953.9152,0.020011
2955.7789,0.020032
2957.6426,0.020000
2959.5062,0.020055
2961.3699,0.020056
2963.2336,0.019974
2965.0972,0.019940
2966.9609,0.019762
2968.8246,0.019397
2970.6883,0.019127
2972.5519,0.019006
2974.4156,0.019110
2976.2793,0.019114
2978.1429,0.018751
2980.0066,0.018305
2981.8703,0.018156
2983.7339,0.018300
2985.5976,0.018222
2987.4613,0.018168
2989.3249,0.018194
2991.1886,0.017968
2993.0523,0.017903
2994.9160,0.017921
2996.7796,0.017735
2998.6433,0.017653
3000.5070,0.017775
3002.3706,0.017831
3004.2343,0.017854
3006.0980,0.017856
3007.9616,0.017804
3009.8253,0.018033
3011.6890,0.018285
3013.5526,0.018396
3015.4163,0.018606
3017.2800,0.018727
3019.1436,0.018645
3021.0073,0.018637
3022.8710,0.018977
3024.7347,0.019129
3026.5983,0.019063
3028.4620,0.019392
3030.3257,0.019744
3032.1893,0.019585
3034.0530,0.019839
3035.9167,0.020428
3037.7803,0.020315
3039.6440,0.020185
3041.5077,0.020495
3043.3713,0.020755
3045.2350,0.020869
3047.0987,0.020839
3048.9624,0.020863
3050.8260,0.021060
3052.6897,0.021124
3054.5534,0.021211
3056.4170,0.021452
3058.2807,0.021643
3060.1444,0.021658
3062.0080,0.021664
3063.8717,0.021567
3065.7354,0.021322
3067.5990,0.021509
3069.4627,0.021715
3071.3264,0.021754
3073.1900,0.021831
3075.0537,0.021604
3076.9174,0.021512
3078.7811,0.021731
3080.6447,0.021882
3082.5084,0.021836
3084.3721,0.021890
3086.2357,0.022099
3088.0994,0.021931
3089.9631,0.021611
3091.8267,0.021389
3093.6904,0.021237
3095.5541,0.021297
3097.4177,0.021510
3099.2814,0.021694
3101.1451,0.021741
3103.0087,0.021646
3104.8724,0.021628
3106.7361,0.021707
3108.5998,0.021841
3110.4634,0.021909
3112.3271,0.021890
3114.1908,0.021825
3116.0544,0.022027
3117.9181,0.022409
3119.7818,0.022416
3121.6454,0.022364
3123.5091,0.022719
3125.3728,0.023121
3127.2364,0.023188
3129.1001,0.023144
3130.9638,0.023159
3132.8275,0.023317
3134.6911,0.023575
3136.5548,0.023683
3138.4185,0.023843
3140.2821,0.024203
3142.1458,0.024371
3144.0095,0.024296
3145.8731,0.024387
3147.7368,0.024665
3149.6005,0.024818
3151.4641,0.025149
3153.3278,0.025543
3155.1915,0.025505
3157.0551,0.025731
3158.9188,0.026007
3160.7825,0.025969
3162.6462,0.026187
3164.5098,0.026393
3166.3735,0.026705
3168.2372,0.027020
3170.1008,0.026841
3171.9645,0.026931
3173.8282,0.027373
3175.6918,0.027710
3177.5555,0.027785
3179.4192,0.027650
3181.2828,0.027888
3183.1465,0.028432
3185.0102,0.028759
3186.8739,0.028631
3188.7375,0.028436
3190.6012,0.028559
3192.4649,0.028725
3194.3285,0.028845
3196.1922,0.028942
3198.0559,0.028993
3199.9195,0.029162
3201.7832,0.029249
3203.6469,0.029139
3205.5105,0.029326
3207.3742,0.029371
3209.2379,0.029275
3211.1015,0.029386
3212.9652,0.029294
3214.8289,0.029276
3216.6926,0.029331
3218.5562,0.029100
3220.4199,0.029129
3222.2836,0.029370
3224.1472,0.029645
3226.0109,0.029782
3227.8746,0.029624
3229.7382,0.029723
3231.6019,0.030187
3233.4656,0.030342
3235.3292,0.030244
3237.1929,0.030034
3239.0566,0.029703
3240.9202,0.029814
3242.7839,0.030063
3244.6476,0.029912
3246.5113,0.030015
3248.3749,0.030544
3250.2386,0.030825
3252.1023,0.030832
3253.9659,0.030680
3255.8296,0.030652
3257.6933,0.030817
3259.5569,0.030860
3261.4206,0.031059
3263.2843,0.031012
3265.1479,0.030703
3267.0116,0.030690
3268.8753,0.030666
3270.7390,0.030515
3272.6026,0.030631
3274.4663,0.031096
3276.3300,0.031324
3278.1936,0.031052
3280.0573,0.030587
3281.9210,0.030479
3283.7846,0.030761
3285.6483,0.030672
3287.5120,0.030643
3289.3756,0.030472
3291.2393,0.030114
3293.1030,0.030109
3294.9666,0.029831
3296.8303,0.029482
3298.6940,0.029468
3300.5577,0.029229
3302.4213,0.029118
3304.2850,0.029411
3306.1487,0.029368
3308.0123,0.028988
3309.8760,0.028823
3311.7397,0.028907
3313.6033,0.028763
3315.4670,0.028305
3317.3307,0.027960
3319.1943,0.027724
3321.0580,0.027421
3322.9217,0.027378
3324.7854,0.027583
3326.6490,0.027638
3328.5127,0.027634
3330.3764,0.027524
3332.2400,0.027260
3334.1037,0.027052
3335.9674,0.026940
3337.8310,0.026708
3339.6947,0.026425
3341.5584,0.026610
3343.4220,0.026788
3345.2857,0.026360
3347.1494,0.025789
3349.0130,0.025700
3350.8767,0.025902
3352.7404,0.025939
3354.6041,0.025665
3356.4677,0.025075
3358.3314,0.025009
3360.1951,0.025204
3362.0587,0.025145
3363.9224,0.025144
3365.7861,0.025022
3367.6497,0.024591
3369.5134,0.024740
3371.3771,0.024868
3373.2407,0.024080
3375.1044,0.023570
3376.9681,0.023842
3378.8317,0.024297
3380.6954,0.024324
3382.5591,0.023687
3384.4228,0.023208
3386.2864,0.022973
3388.1501,0.022997
3390.0138,0.023172
3391.8774,0.023014
3393.7411,0.022972
3395.6048,0.022968
3397.4684,0.022631
3399.3321,0.022413
3401.1958,0.022411
3403.0594,0.022253
3404.9231,0.022062
3406.7868,0.022189
3408.6505,0.022292
3410.5141,0.021943
3412.3778,0.021793
3414.2415,0.021738
3416.1051,0.021216
3417.9688,0.020875
3419.8325,0.020741
3421.6961,0.020890
3423.5598,0.021050
3425.4235,0.020752
3427.2871,0.020532
3429.1508,0.020243
3431.0145,0.019832
3432.8781,0.019855
3434.7418,0.019777
3436.6055,0.019511
3438.4692,0.019449
3440.3328,0.019195
3442.1965,0.018845
3444.0602,0.018829
3445.9238,0.019181
3447.7875,0.019323
3449.6512,0.018917
3451.5148,0.018254
3453.3785,0.017870
3455.2422,0.017777
3457.1058,0.017662
3458.9695,0.017816
3460.8332,0.017814
3462.6969,0.017487
3464.5605,0.017275
3466.4242,0.017130
3468.2879,0.016790
3470.1515,0.016225
3472.0152,0.015669
3473.8789,0.015575
3475.7425,0.015799
3477.6062,0.016103
3479.4699,0.015842
3481.3335,0.014906
3483.1972,0.014377
3485.0609,0.014606
3486.9245,0.015030
3488.7882,0.015139
3490.6519,0.014349
3492.5156,0.013880
3494.3792,0.013742
3496.2429,0.013258
3498.1066,0.013034
3499.9702,0.012792
3501.8339,0.012594
3503.6976,0.012520
3505.5612,0.012291
3507.4249,0.011999
3509.2886,0.011558
3511.1522,0.011633
3513.0159,0.011863
3514.8796,0.011676
3516.7432,0.011229
3518.6069,0.010621
3520.4706,0.010479
3522.3343,0.010366
3524.1979,0.009594
3526.0616,0.009696
3527.9253,0.009988
3529.7889,0.009815
3531.6526,0.009554
3533.5163,0.008933
3535.3799,0.008534
3537.2436,0.008466
3539.1073,0.008261
3540.9709,0.007843
3542.8346,0.007564
3544.6983,0.007127
3546.5620,0.006836
3548.4256,0.007241
3550.2893,0.006943
3552.1530,0.006540
3554.0166,0.006490
3555.8803,0.006343
3557.7440,0.006057
3559.6076,0.005555
3561.4713,0.005288
3563.3350,0.005121
3565.1986,0.004964
3567.0623,0.005246
3568.9260,0.005458
3570.7896,0.005086
3572.6533,0.004888
3574.5170,0.004843
3576.3807,0.004377
3578.2443,0.004136
3580.1080,0.004253
3581.9717,0.004151
3583.8353,0.003791
3585.6990,0.003198
3587.5627,0.002826
3589.4263,0.002639
3591.2900,0.002564
3593.1537,0.002164
3595.0173,0.002007
3596.8810,0.002279
3598.7447,0.001987
3600.6084,0.001535
3602.4720,0.001757
3604.3357,0.001746
3606.1994,0.001024
3608.0630,0.000585
3609.9267,0.000362
3611.7904,0.000101
3613.6540,0.000277
3615.5177,0.000383
3617.3814,0.000132
3619.2450,0.000290
3621.1087,0.000784
3622.9724,0.000697
3624.8360,-0.000179
3626.6997,-0.000840
3628.5634,-0.001223
3630.4271,-0.001289
3632.2907,-0.001248
3634.1544,-0.001504
3636.0181,-0.001338
3637.8817,-0.001303
3639.7454,-0.001519
3641.6091,-0.001609
3643.4727,-0.001772
3645.3364,-0.001798
3647.2001,-0.001808
3649.0637,-0.001897
3650.9274,-0.002599
3652.7911,-0.002961
3654.6547,-0.002596
3656.5184,-0.002535
3658.3821,-0.002582
3660.2458,-0.002627
3662.1094,-0.002669
3663.9731,-0.002823
3665.8368,-0.003399
3667.7004,-0.003612
3669.5641,-0.003624
3671.4278,-0.003930
3673.2914,-0.003853
3675.1551,-0.003815
3677.0188,-0.004279
3678.8824,-0.003935
3680.7461,-0.003651
3682.6098,-0.003715
3684.4735,-0.003736
3686.3371,-0.003444
3688.2008,-0.003406
3690.0645,-0.004125
3691.9281,-0.004451
3693.7918,-0.004106
3695.6555,-0.003945
3697.5191,-0.003743
3699.3828,-0.003518
3701.2465,-0.003860
3703.1101,-0.004038
3704.9738,-0.003626
3706.8375,-0.003868
3708.7011,-0.004480
3710.5648,-0.004615
3712.4285,-0.004294
3714.2922,-0.003809
3716.1558,-0.003525
3718.0195,-0.004242
3719.8832,-0.004790
3721.7468,-0.004409
3723.6105,-0.004155
3725.4742,-0.004574
3727.3378,-0.004715
3729.2015,-0.004194
3731.0652,-0.003794
3732.9288,-0.003815
3734.7925,-0.004125
3736.6562,-0.004319
3738.5199,-0.004664
3740.3835,-0.004427
3742.2472,-0.003725
3744.1109,-0.003999
3745.9745,-0.004790
3747.8382,-0.004257
3749.7019,-0.004063
3751.5655,-0.004769
3753.4292,-0.004879
3755.2929,-0.004081
3757.1565,-0.003534
3759.0202,-0.003678
3760.8839,-0.003961
3762.7475,-0.003789
3764.6112,-0.003744
3766.4749,-0.004187
3768.3386,-0.004111
3770.2022,-0.003866
3772.0659,-0.004104
3773.9296,-0.004195
3775.7932,-0.003778
3777.6569,-0.003643
3779.5206,-0.004040
3781.3842,-0.004338
3783.2479,-0.004064
3785.1116,-0.003749
3786.9752,-0.003970
3788.8389,-0.004230
3790.7026,-0.004085
3792.5662,-0.004087
3794.4299,-0.004360
3796.2936,-0.004091
3798.1573,-0.003673
3800.0209,-0.003832
3801.8846,-0.004004
3803.7483,-0.004086
3805.6119,-0.004078
3807.4756,-0.004318
3809.3393,-0.004304
3811.2029,-0.003913
3813.0666,-0.003531
3814.9303,-0.003995
3816.7939,-0.004708
3818.6576,-0.004499
3820.5213,-0.004245
3822.3850,-0.004365
3824.2486,-0.004079
3826.1123,-0.003843
3827.9760,-0.003774
3829.8396,-0.003580
3831.7033,-0.003524
3833.5670,-0.003941
3835.4306,-0.004135
3837.2943,-0.004010
3839.1580,-0.004114
3841.0216,-0.004352
3842.8853,-0.004248
3844.7490,-0.003956
3846.6126,-0.003934
3848.4763,-0.003860
3850.3400,-0.003726
3852.2037,-0.003829
3854.0673,-0.004389
3855.9310,-0.004942
3857.7947,-0.004324
3859.6583,-0.003913
3861.5220,-0.003897
3863.3857,-0.003871
3865.2493,-0.004028
3867.1130,-0.003799
3868.9767,-0.003768
3870.8403,-0.004264
3872.7040,-0.004332
3874.5677,-0.004419
3876.4314,-0.004446
3878.2950,-0.004069
3880.1587,-0.003919
3882.0224,-0.003768
3883.8860,-0.003899
3885.7497,-0.004359
3887.6134,-0.004110
3889.4770,-0.003586
3891.3407,-0.003890
3893.2044,-0.004142
3895.0680,-0.003539
3896.9317,-0.003507
3898.7954,-0.003875
3900.6590,-0.003752
3902.5227,-0.003625
3904.3864,-0.003889
3906.2501,-0.004186
3908.1137,-0.004286
3909.9774,-0.004263
3911.8411,-0.004020
3913.7047,-0.003627
3915.5684,-0.003644
3917.4321,-0.003854
3919.2957,-0.003906
3921.1594,-0.003906
3923.0231,-0.003863
3924.8867,-0.003654
3926.7504,-0.003355
3928.6141,-0.003322
3930.4777,-0.003563
3932.3414,-0.003825
3934.2051,-0.004046
3936.0688,-0.003618
3937.9324,-0.003270
3939.7961,-0.003545
3941.6598,-0.003645
3943.5234,-0.003372
3945.3871,-0.003413
3947.2508,-0.003938
3949.1144,-0.004041
3950.9781,-0.003802
3952.8418,-0.004058
3954.7054,-0.004028
3956.5691,-0.003542
3958.4328,-0.003404
3960.2965,-0.003506
3962.1601,-0.003682
3964.0238,-0.003725
3965.8875,-0.003647
3967.7511,-0.003514
3969.6148,-0.003329
3971.4785,-0.003339
3973.3421,-0.003644
3975.2058,-0.004205
3977.0695,-0.004093
3978.9331,-0.003816
3980.7968,-0.003700
3982.6605,-0.003376
3984.5241,-0.003299
3986.3878,-0.003736
3988.2515,-0.003864
3990.1152,-0.003414
3991.9788,-0.003132
3993.8425,-0.003542
3995.7062,-0.003910
3997.5698,-0.003661
3999.4335,-0.003539
