Wavenumber,Intensity
650.4205,0.061587
652.2841,0.062713
654.1478,0.061042
656.0115,0.060629
657.8751,0.062478
659.7388,0.062766
661.6025,0.062785
663.4661,0.061909
665.3298,0.061109
667.1935,0.059428
669.0571,0.057317
670.9208,0.059383
672.7845,0.060088
674.6481,0.060532
676.5118,0.061875
678.3755,0.060992
680.2392,0.059047
682.1028,0.057000
683.9665,0.057257
685.8302,0.057818
687.6938,0.057323
689.5575,0.056499
691.4212,0.056996
693.2848,0.057196
695.1485,0.056957
697.0122,0.056269
698.8758,0.055164
700.7395,0.054807
702.6032,0.054649
704.4669,0.054106
706.3305,0.053471
708.1942,0.052885
710.0579,0.052065
711.9215,0.051878
713.7852,0.051916
715.6489,0.051212
717.5125,0.050353
719.3762,0.049296
721.2399,0.048799
723.1035,0.048800
724.9672,0.048717
726.8309,0.047956
728.6945,0.047055
730.5582,0.046647
732.4219,0.046704
734.2856,0.045943
736.1492,0.045839
738.0129,0.046336
739.8766,0.046413
741.7402,0.046310
743.6039,0.046137
745.4676,0.045198
747.3312,0.044491
749.1949,0.044042
751.0586,0.043750
752.9222,0.043990
754.7859,0.043867
756.6496,0.043238
758.5132,0.043174
760.3769,0.043456
762.2406,0.043359
764.1043,0.042484
765.9679,0.042127
767.8316,0.041992
769.6953,0.041764
771.5589,0.041617
773.4226,0.041360
775.2863,0.040853
777.1499,0.040636
779.0136,0.040635
780.8773,0.040429
782.7409,0.039931
784.6046,0.039640
786.4683,0.039075
788.3320,0.038665
790.1956,0.038469
792.0593,0.038027
793.9230,0.037800
795.7866,0.038005
797.6503,0.037854
799.5140,0.037638
801.3776,0.037770
803.2413,0.037677
805.1050,0.037214
806.9686,0.037044
808.8323,0.037365
810.6960,0.037521
812.5596,0.037585
814.4233,0.037749
816.2870,0.037540
818.1507,0.036909
820.0143,0.036597
821.8780,0.036301
823.7417,0.035744
825.6053,0.035189
827.4690,0.034546
829.3327,0.033521
831.1963,0.032823
833.0600,0.032682
834.9237,0.032336
836.7873,0.031829
838.6510,0.031501
840.5147,0.031176
842.3784,0.030978
844.2420,0.030707
846.1057,0.030326
847.9694,0.030249
849.8330,0.030113
851.6967,0.029874
853.5604,0.029829
855.4240,0.029667
857.2877,0.029639
859.1514,0.029872
861.0150,0.030095
862.8787,0.030258
864.7424,0.030359
866.6060,0.030458
868.4697,0.030469
870.3334,0.030519
872.1971,0.030609
874.0607,0.030664
875.9244,0.030729
877.7881,0.030469
879.6517,0.030146
881.5154,0.029922
883.3791,0.029887
885.2427,0.029737
887.1064,0.029604
888.9701,0.029403
890.8337,0.029277
892.6974,0.029405
894.5611,0.029386
896.4247,0.029243
898.2884,0.029041
900.1521,0.028902
902.0158,0.028754
903.8794,0.028583
905.7431,0.028601
907.6068,0.028804
909.4704,0.029239
911.3341,0.029529
913.1978,0.029654
915.0614,0.029803
916.9251,0.029877
918.7888,0.029961
920.6524,0.029959
922.5161,0.029909
924.3798,0.029977
926.2435,0.029995
928.1071,0.030011
929.9708,0.030242
931.8345,0.030285
933.6981,0.030371
935.5618,0.030548
937.4255,0.030695
939.2891,0.031093
941.1528,0.031689
943.0165,0.032201
944.8801,0.032638
946.7438,0.032976
948.6075,0.033297
950.4711,0.033455
952.3348,0.033665
954.1985,0.034075
956.0622,0.034453
957.9258,0.035099
959.7895,0.036103
961.6532,0.037203
963.5168,0.038216
965.3805,0.039160
967.2442,0.039985
969.1078,0.040450
970.9715,0.040547
972.8352,0.040389
974.6988,0.040323
976.5625,0.040639
978.4262,0.041130
980.2899,0.041635
982.1535,0.042294
984.0172,0.043006
985.8809,0.043598
987.7445,0.044149
989.6082,0.044848
991.4719,0.045511
993.3355,0.046265
995.1992,0.047121
997.0629,0.047881
998.9265,0.048726
1000.7902,0.049553
1002.6539,0.050277
1004.5175,0.051172
1006.3812,0.052390
1008.2449,0.053757
1010.1086,0.055484
1011.9722,0.057416
1013.8359,0.059299
1015.6996,0.061063
1017.5632,0.062706
1019.4269,0.064239
1021.2906,0.065485
1023.1542,0.066397
1025.0179,0.067166
1026.8816,0.067997
1028.7452,0.068963
1030.6089,0.069878
1032.4726,0.070553
1034.3362,0.071049
1036.1999,0.071360
1038.0636,0.071490
1039.9273,0.071422
1041.7909,0.071216
1043.6546,0.070993
1045.5183,0.070917
1047.3819,0.070891
1049.2456,0.070915
1051.1093,0.070941
1052.9729,0.071067
1054.8366,0.071390
1056.7003,0.071612
1058.5639,0.071651
1060.4276,0.071854
1062.2913,0.072139
1064.1550,0.072285
1066.0186,0.072248
1067.8823,0.072538
1069.7460,0.072810
1071.6096,0.072766
1073.4733,0.072616
1075.3370,0.072324
1077.2006,0.071560
1079.0643,0.070352
1080.9280,0.068732
1082.7916,0.066794
1084.6553,0.064772
1086.5190,0.062742
1088.3826,0.060818
1090.2463,0.059091
1092.1100,0.057623
1093.9737,0.056495
1095.8373,0.055591
1097.7010,0.054652
1099.5647,0.053806
1101.4283,0.053167
1103.2920,0.052582
1105.1557,0.052160
1107.0193,0.051898
1108.8830,0.051840
1110.7467,0.051889
1112.6103,0.051866
1114.4740,0.051705
1116.3377,0.051445
1118.2014,0.051144
1120.0650,0.050646
1121.9287,0.050078
1123.7924,0.049478
1125.6560,0.048797
1127.5197,0.048068
1129.3834,0.047288
1131.2470,0.046474
1133.1107,0.045571
1134.9744,0.044615
1136.8380,0.043718
1138.7017,0.043000
1140.5654,0.042477
1142.4290,0.042160
1144.2927,0.041911
1146.1564,0.041738
1148.0201,0.041696
1149.8837,0.041745
1151.7474,0.041890
1153.6111,0.041957
1155.4747,0.041815
1157.3384,0.041598
1159.2021,0.041455
1161.0657,0.041187
1162.9294,0.040669
1164.7931,0.040031
1166.6567,0.039315
1168.5204,0.038460
1170.3841,0.037407
1172.2477,0.036111
1174.1114,0.034636
1175.9751,0.033295
1177.8388,0.032217
1179.7024,0.031343
1181.5661,0.030834
1183.4298,0.030556
1185.2934,0.030449
1187.1571,0.030596
1189.0208,0.030867
1190.8844,0.031192
1192.7481,0.031582
1194.6118,0.032119
1196.4754,0.032711
1198.3391,0.033401
1200.2028,0.034185
1202.0665,0.034921
1203.9301,0.035674
1205.7938,0.036319
1207.6575,0.036875
1209.5211,0.037529
1211.3848,0.038132
1213.2485,0.038627
1215.1121,0.039231
1216.9758,0.039829
1218.8395,0.040470
1220.7031,0.041221
1222.5668,0.041834
1224.4305,0.042363
1226.2941,0.042887
1228.1578,0.043347
1230.0215,0.043654
1231.8852,0.043947
1233.7488,0.044184
1235.6125,0.044245
1237.4762,0.044190
1239.3398,0.044103
1241.2035,0.043950
1243.0672,0.043706
1244.9308,0.043334
1246.7945,0.042897
1248.6582,0.042509
1250.5218,0.042158
1252.3855,0.041859
1254.2492,0.041531
1256.1129,0.041107
1257.9765,0.040689
1259.8402,0.040298
1261.7039,0.039897
1263.5675,0.039527
1265.4312,0.039266
1267.2949,0.039055
1269.1585,0.038732
1271.0222,0.038410
1272.8859,0.038300
1274.7495,0.038140
1276.6132,0.037927
1278.4769,0.037820
1280.3405,0.037759
1282.2042,0.037735
1284.0679,0.037644
1285.9316,0.037549
1287.7952,0.037568
1289.6589,0.037616
1291.5226,0.037722
1293.3862,0.037818
1295.2499,0.037967
1297.1136,0.038299
1298.9772,0.038647
1300.8409,0.038949
1302.7046,0.039217
1304.5682,0.039414
1306.4319,0.039689
1308.2956,0.039955
1310.1592,0.040168
1312.0229,0.040403
1313.8866,0.040504
1315.7503,0.040436
1317.6139,0.040332
1319.4776,0.040167
1321.3413,0.039913
1323.2049,0.039648
1325.0686,0.039324
1326.9323,0.039039
1328.7959,0.038822
1330.6596,0.038646
1332.5233,0.038655
1334.3869,0.038630
1336.2506,0.038570
1338.1143,0.038856
1339.9780,0.039495
1341.8416,0.039640
1343.7053,0.039436
1345.5690,0.039353
1347.4326,0.039333
1349.2963,0.039322
1351.1600,0.039316
1353.0236,0.039390
1354.8873,0.039519
1356.7510,0.039532
1358.6146,0.039537
1360.4783,0.040011
1362.3420,0.041208
1364.2056,0.042265
1366.0693,0.042826
1367.9330,0.043677
1369.7967,0.044399
1371.6603,0.044831
1373.5240,0.045919
1375.3877,0.047124
1377.2513,0.047487
1379.1150,0.047716
1380.9787,0.047805
1382.8423,0.047715
1384.7060,0.047660
1386.5697,0.048068
1388.4333,0.048611
1390.2970,0.048312
1392.1607,0.047867
1394.0244,0.048197
1395.8880,0.048860
1397.7517,0.049030
1399.6154,0.049385
1401.4790,0.049165
1403.3427,0.048683
1405.2064,0.048573
1407.0700,0.048103
1408.9337,0.047245
1410.7974,0.046478
1412.6610,0.045631
1414.5247,0.044693
1416.3884,0.043831
1418.2520,0.043744
1420.1157,0.043931
1421.9794,0.043131
1423.8431,0.042647
1425.7067,0.042356
1427.5704,0.041987
1429.4341,0.042287
1431.2977,0.042637
1433.1614,0.042522
1435.0251,0.042787
1436.8887,0.044377
1438.7524,0.044953
1440.6161,0.044528
1442.4797,0.044491
1444.3434,0.044389
1446.2071,0.044263
1448.0707,0.044608
1449.9344,0.044460
1451.7981,0.043650
1453.6618,0.042477
1455.5254,0.041617
1457.3891,0.042512
1459.2528,0.042310
1461.1164,0.040765
1462.9801,0.039789
1464.8438,0.039858
1466.7074,0.039328
1468.5711,0.037959
1470.4348,0.036702
1472.2984,0.036357
1474.1621,0.036197
1476.0258,0.035810
1477.8895,0.035464
1479.7531,0.035283
1481.6168,0.035648
1483.4805,0.035945
1485.3441,0.036213
1487.2078,0.037391
1489.0715,0.039611
1490.9351,0.041863
1492.7988,0.042365
1494.6625,0.042999
1496.5261,0.045712
1498.3898,0.048480
1500.2535,0.049678
1502.1171,0.049978
1503.9808,0.050165
1505.8445,0.053239
1507.7082,0.060231
1509.5718,0.061643
1511.4355,0.061888
1513.2992,0.062731
1515.1628,0.063699
1517.0265,0.065354
1518.8902,0.065714
1520.7538,0.066649
1522.6175,0.068932
1524.4812,0.069176
1526.3448,0.070084
1528.2085,0.070996
1530.0722,0.070870
1531.9359,0.071009
1533.7995,0.072697
1535.6632,0.072266
1537.5269,0.070478
1539.3905,0.071338
1541.2542,0.074450
1543.1179,0.074134
1544.9815,0.073272
1546.8452,0.071665
1548.7089,0.070015
1550.5725,0.068692
1552.4362,0.066638
1554.2999,0.064408
1556.1635,0.061778
1558.0272,0.060325
1559.8909,0.061995
1561.7546,0.060384
1563.6182,0.057957
1565.4819,0.056030
1567.3456,0.054366
1569.2092,0.053226
1571.0729,0.052134
1572.9366,0.050342
1574.8002,0.048930
1576.6639,0.048836
1578.5276,0.048336
1580.3912,0.047314
1582.2549,0.046663
1584.1186,0.046151
1585.9822,0.045906
1587.8459,0.045967
1589.7096,0.046213
1591.5733,0.046701
1593.4369,0.047356
1595.3006,0.048089
1597.1643,0.048904
1599.0279,0.049904
1600.8916,0.051206
1602.7553,0.052735
1604.6189,0.054483
1606.4826,0.056295
1608.3463,0.058440
1610.2099,0.060701
1612.0736,0.062563
1613.9373,0.064086
1615.8010,0.067101
1617.6646,0.071629
1619.5283,0.073246
1621.3920,0.074356
1623.2556,0.077329
1625.1193,0.079897
1626.9830,0.081518
1628.8466,0.083515
1630.7103,0.084201
1632.5740,0.083577
1634.4376,0.084018
1636.3013,0.086594
1638.1650,0.086776
1640.0286,0.085210
1641.8923,0.083301
1643.7560,0.080947
1645.6197,0.079571
1647.4833,0.079514
1649.3470,0.077508
1651.2107,0.074484
1653.0743,0.073641
1654.9380,0.073147
1656.8017,0.070483
1658.6653,0.067185
1660.5290,0.063814
1662.3927,0.061072
1664.2563,0.058812
1666.1200,0.056215
1667.9837,0.053519
1669.8474,0.051048
1671.7110,0.048865
1673.5747,0.046286
1675.4384,0.043620
1677.3020,0.041413
1679.1657,0.039385
1681.0294,0.036589
1682.8930,0.033422
1684.7567,0.030339
1686.6204,0.028894
1688.4840,0.027339
1690.3477,0.025026
1692.2114,0.022720
1694.0750,0.020326
1695.9387,0.017060
1697.8024,0.014745
1699.6661,0.012452
1701.5297,0.010301
1703.3934,0.009828
1705.2571,0.008779
1707.1207,0.007507
1708.9844,0.007068
1710.8481,0.006633
1712.7117,0.006164
1714.5754,0.005515
1716.4391,0.004451
1718.3027,0.003381
1720.1664,0.003798
1722.0301,0.004137
1723.8937,0.003869
1725.7574,0.003686
1727.6211,0.003666
1729.4848,0.003546
1731.3484,0.003476
1733.2121,0.002737
1735.0758,0.002062
1736.9394,0.002642
1738.8031,0.002741
1740.6668,0.002525
1742.5304,0.002446
1744.3941,0.002286
1746.2578,0.002368
1748.1214,0.002217
1749.9851,0.001640
1751.8488,0.001170
1753.7125,0.001267
1755.5761,0.001205
1757.4398,0.001019
1759.3035,0.000948
1761.1671,0.000683
1763.0308,0.000558
1764.8945,0.000855
1766.7581,0.001023
1768.6218,0.001046
1770.4855,0.000664
1772.3491,0.000076
1774.2128,0.000299
1776.0765,0.000727
1777.9401,0.000852
1779.8038,0.000716
1781.6675,0.000495
1783.5312,0.000514
1785.3948,0.000571
1787.2585,0.000821
1789.1222,0.000952
1790.9858,0.000537
1792.8495,-0.000048
1794.7132,0.000270
1796.5768,0.000629
1798.4405,0.000454
1800.3042,0.000160
1802.1678,0.000140
1804.0315,0.000184
1805.8952,0.000388
1807.7589,0.000552
1809.6225,0.000473
1811.4862,0.000387
1813.3499,0.000530
1815.2135,0.000426
1817.0772,0.000369
1818.9409,0.000477
1820.8045,0.000640
1822.6682,0.000712
1824.5319,0.000503
1826.3955,0.000383
1828.2592,0.000502
1830.1229,0.000251
1831.9865,0.000194
1833.8502,0.000327
1835.7139,0.000397
1837.5776,0.000558
1839.4412,0.000774
1841.3049,0.000750
1843.1686,0.000583
1845.0322,0.000248
1846.8959,0.000254
1848.7596,0.000308
1850.6232,0.000352
1852.4869,0.000384
1854.3506,0.000422
1856.2142,0.000357
1858.0779,0.000212
1859.9416,0.000152
1861.8052,0.000175
1863.6689,0.000337
1865.5326,0.000629
1867.3963,0.000536
1869.2599,0.000125
1871.1236,0.000067
1872.9873,0.000315
1874.8509,0.000194
1876.7146,0.000298
1878.5783,0.000593
1880.4419,0.000384
1882.3056,0.000126
1884.1693,0.000099
1886.0329,0.000121
1887.8966,0.000200
1889.7603,0.000251
1891.6240,0.000288
1893.4876,0.000080
1895.3513,-0.000006
1897.2150,-0.000210
1899.0786,-0.000170
1900.9423,0.000166
1902.8060,0.000135
1904.6696,0.000013
1906.5333,0.000212
1908.3970,0.000056
1910.2606,0.000026
1912.1243,0.000309
1913.9880,0.000490
1915.8516,0.000444
1917.7153,-0.000020
1919.5790,-0.000283
1921.4427,-0.000050
1923.3063,-0.000285
1925.1700,-0.000433
1927.0337,-0.000252
1928.8973,-0.000255
1930.7610,-0.000505
1932.6247,-0.000671
1934.4883,-0.000593
1936.3520,-0.000622
1938.2157,-0.000792
1940.0793,-0.000510
1941.9430,-0.000696
1943.8067,-0.000981
1945.6704,-0.000776
1947.5340,-0.000961
1949.3977,-0.001209
1951.2614,-0.001097
1953.1250,-0.001060
1954.9887,-0.000970
1956.8524,-0.000651
1958.7160,-0.000633
1960.5797,-0.001061
1962.4434,-0.001081
1964.3070,-0.000611
1966.1707,-0.000545
1968.0344,-0.001164
1969.8980,-0.001130
1971.7617,-0.001457
1973.6254,-0.002300
1975.4891,-0.001820
1977.3527,-0.001090
1979.2164,-0.001112
1981.0801,-0.000514
1982.9437,-0.000468
1984.8074,-0.001649
1986.6711,-0.001649
1988.5347,-0.000346
1990.3984,-0.000951
1992.2621,-0.001885
1994.1257,-0.001244
1995.9894,-0.000004
1997.8531,0.000044
1999.7167,-0.000643
2001.5804,-0.002085
2003.4441,-0.002258
2005.3078,-0.000778
2007.1714,-0.001072
2009.0351,-0.002490
2010.8988,-0.002595
2012.7624,-0.003201
2014.6261,-0.003678
2016.4898,-0.002837
2018.3534,-0.001234
2020.2171,-0.000817
2022.0808,-0.000887
2023.9444,-0.001277
2025.8081,-0.001463
2027.6718,-0.000632
2029.5355,-0.000296
2031.3991,-0.001441
2033.2628,-0.001132
2035.1265,-0.000696
2036.9901,-0.001094
2038.8538,-0.000581
2040.7175,-0.000252
2042.5811,-0.000550
2044.4448,-0.001383
2046.3085,-0.001714
2048.1721,-0.000288
2050.0358,0.000958
2051.8995,0.001084
2053.7631,0.000687
2055.6268,0.000638
2057.4905,0.000661
2059.3542,0.000982
2061.2178,0.001361
2063.0815,0.001410
2064.9452,0.001110
2066.8088,0.001166
2068.6725,0.001514
2070.5362,0.001479
2072.3998,0.001460
2074.2635,0.001842
2076.1272,0.001935
2077.9908,0.002107
2079.8545,0.002209
2081.7182,0.001887
2083.5819,0.001321
2085.4455,0.001367
2087.3092,0.001376
2089.1729,0.001397
2091.0365,0.001557
2092.9002,0.001322
2094.7639,0.001454
2096.6275,0.001961
2098.4912,0.002121
2100.3549,0.002300
2102.2185,0.002081
2104.0822,0.001221
2105.9459,0.000941
2107.8095,0.001663
2109.6732,0.001911
2111.5369,0.001784
2113.4006,0.001702
2115.2642,0.001572
2117.1279,0.001407
2118.9916,0.001577
2120.8552,0.001127
2122.7189,0.000343
2124.5826,0.000545
2126.4462,0.000815
2128.3099,0.000098
2130.1736,-0.000529
2132.0372,-0.000315
2133.9009,-0.000768
2135.7646,-0.000754
2137.6282,0.000592
2139.4919,0.000358
2141.3556,-0.001031
2143.2193,-0.001638
2145.0829,-0.002057
2146.9466,-0.002222
2148.8103,-0.001672
2150.6739,-0.001240
2152.5376,-0.001436
2154.4013,-0.002216
2156.2649,-0.002944
2158.1286,-0.004152
2159.9923,-0.003812
2161.8559,-0.001733
2163.7196,-0.001488
2165.5833,-0.001608
2167.4470,-0.000740
2169.3106,-0.000350
2171.1743,-0.001357
2173.0380,-0.002640
2174.9016,-0.002126
2176.7653,-0.000031
2178.6290,0.000520
2180.4926,0.000466
2182.3563,0.000372
2184.2200,-0.000170
2186.0836,0.000635
2187.9473,0.001061
2189.8110,0.000780
2191.6746,0.000473
2193.5383,0.000382
2195.4020,0.000800
2197.2657,0.000952
2199.1293,0.000199
2200.9930,-0.000104
2202.8567,0.001121
2204.7203,0.001973
2206.5840,0.001425
2208.4477,0.001063
2210.3113,0.001228
2212.1750,0.001655
2214.0387,0.001024
2215.9023,0.000736
2217.7660,0.001408
2219.6297,0.000835
2221.4934,0.001141
2223.3570,0.002285
2225.2207,0.002350
2227.0844,0.002053
2228.9480,0.001487
2230.8117,0.001727
2232.6754,0.001904
2234.5390,0.001744
2236.4027,0.001325
2238.2664,0.001357
2240.1300,0.001671
2241.9937,0.001835
2243.8574,0.002153
2245.7210,0.002199
2247.5847,0.002505
2249.4484,0.002904
2251.3121,0.002758
2253.1757,0.002823
2255.0394,0.002699
2256.9031,0.002673
2258.7667,0.002891
2260.6304,0.002794
2262.4941,0.002460
2264.3577,0.002313
2266.2214,0.002839
2268.0851,0.003098
2269.9487,0.003031
2271.8124,0.003482
2273.6761,0.003553
2275.5397,0.003124
2277.4034,0.003378
2279.2671,0.003694
2281.1308,0.003423
2282.9944,0.003196
2284.8581,0.003538
2286.7218,0.003910
2288.5854,0.003745
2290.4491,0.003439
2292.3128,0.003207
2294.1764,0.003435
2296.0401,0.003814
2297.9038,0.003865
2299.7674,0.003393
2301.6311,0.003157
2303.4948,0.003373
2305.3585,0.003496
2307.2221,0.003605
2309.0858,0.003740
2310.9495,0.003673
2312.8131,0.003332
2314.6768,0.003201
2316.5405,0.003358
2318.4041,0.003582
2320.2678,0.003844
2322.1315,0.003878
2323.9951,0.003937
2325.8588,0.003646
2327.7225,0.003090
2329.5861,0.002470
2331.4498,0.002150
2333.3135,0.002381
2335.1772,0.002440
2337.0408,0.002142
2338.9045,0.002099
2340.7682,0.002602
2342.6318,0.003266
2344.4955,0.003287
2346.3592,0.003079
2348.2228,0.003117
2350.0865,0.003278
2351.9502,0.003364
2353.8138,0.002872
2355.6775,0.001839
2357.5412,0.001680
2359.4049,0.001929
2361.2685,0.002126
2363.1322,0.002227
2364.9959,0.002293
2366.8595,0.002919
2368.7232,0.003191
2370.5869,0.002997
2372.4505,0.003278
2374.3142,0.003907
2376.1779,0.003941
2378.0415,0.003704
2379.9052,0.003960
2381.7689,0.004183
2383.6325,0.004131
2385.4962,0.004023
2387.3599,0.003708
2389.2236,0.003615
2391.0872,0.003833
2392.9509,0.003978
2394.8146,0.003949
2396.6782,0.003701
2398.5419,0.003808
2400.4056,0.003981
2402.2692,0.003699
2404.1329,0.003647
2405.9966,0.004167
2407.8602,0.004512
2409.7239,0.004263
2411.5876,0.003993
2413.4512,0.004085
2415.3149,0.004093
2417.1786,0.004037
2419.0423,0.004251
2420.9059,0.004453
2422.7696,0.004247
2424.6333,0.004051
2426.4969,0.004172
2428.3606,0.004099
2430.2243,0.003768
2432.0879,0.004092
2433.9516,0.004348
2435.8153,0.004144
2437.6789,0.004366
2439.5426,0.004680
2441.4063,0.004592
2443.2700,0.004262
2445.1336,0.004221
2446.9973,0.004719
2448.8610,0.005193
2450.7246,0.005079
2452.5883,0.004655
2454.4520,0.004612
2456.3156,0.004944
2458.1793,0.004967
2460.0430,0.004779
2461.9066,0.004701
2463.7703,0.004611
2465.6340,0.004613
2467.4976,0.004748
2469.3613,0.004817
2471.2250,0.004932
2473.0887,0.004861
2474.9523,0.004615
2476.8160,0.004647
2478.6797,0.004663
2480.5433,0.004871
2482.4070,0.005273
2484.2707,0.005508
2486.1343,0.005347
2487.9980,0.004967
2489.8617,0.005015
2491.7253,0.005200
2493.5890,0.005291
2495.4527,0.005598
2497.3164,0.005593
2499.1800,0.005212
2501.0437,0.005254
2502.9074,0.005425
2504.7710,0.005273
2506.6347,0.005598
2508.4984,0.005857
2510.3620,0.005665
2512.2257,0.005543
2514.0894,0.005403
2515.9530,0.005361
2517.8167,0.005652
2519.6804,0.005840
2521.5440,0.005785
2523.4077,0.005660
2525.2714,0.005648
2527.1351,0.005727
2528.9987,0.005874
2530.8624,0.006019
2532.7261,0.005988
2534.5897,0.005801
2536.4534,0.005730
2538.3171,0.005866
2540.1807,0.006190
2542.0444,0.006528
2543.9081,0.006315
2545.7717,0.006164
2547.6354,0.006395
2549.4991,0.006569
2551.3627,0.006720
2553.2264,0.006389
2555.0901,0.006134
2556.9538,0.006336
2558.8174,0.006173
2560.6811,0.006227
2562.5448,0.006679
2564.4084,0.006830
2566.2721,0.006939
2568.1358,0.006963
2569.9994,0.006695
2571.8631,0.006623
2573.7268,0.007006
2575.5904,0.007103
2577.4541,0.006910
2579.3178,0.006966
2581.1815,0.007096
2583.0451,0.007254
2584.9088,0.007235
2586.7725,0.007190
2588.6361,0.007264
2590.4998,0.007398
2592.3635,0.007574
2594.2271,0.007522
2596.0908,0.007638
2597.9545,0.007611
2599.8181,0.007367
2601.6818,0.007582
2603.5455,0.007945
2605.4091,0.008056
2607.2728,0.008189
2609.1365,0.008110
2611.0002,0.007908
2612.8638,0.007727
2614.7275,0.007528
2616.5912,0.007682
2618.4548,0.008078
2620.3185,0.008113
2622.1822,0.008108
2624.0458,0.008327
2625.9095,0.008558
2627.7732,0.008577
2629.6368,0.008478
2631.5005,0.008537
2633.3642,0.008672
2635.2279,0.008650
2637.0915,0.008609
2638.9552,0.008683
2640.8189,0.008676
2642.6825,0.008595
2644.5462,0.008617
2646.4099,0.008860
2648.2735,0.008977
2650.1372,0.008925
2652.0009,0.008981
2653.8645,0.009036
2655.7282,0.008983
2657.5919,0.009046
2659.4555,0.009216
2661.3192,0.009134
2663.1829,0.008860
2665.0466,0.008722
2666.9102,0.008775
2668.7739,0.008938
2670.6376,0.008900
2672.5012,0.008864
2674.3649,0.009172
2676.2286,0.009294
2678.0922,0.009236
2679.9559,0.009315
2681.8196,0.009404
2683.6832,0.009384
2685.5469,0.009268
2687.4106,0.009257
2689.2742,0.009379
2691.1379,0.009468
2693.0016,0.009616
2694.8653,0.009722
2696.7289,0.009595
2698.5926,0.009579
2700.4563,0.009724
2702.3199,0.009772
2704.1836,0.009897
2706.0473,0.009990
2707.9109,0.009932
2709.7746,0.010024
2711.6383,0.010165
2713.5019,0.010218
2715.3656,0.010231
2717.2293,0.010288
2719.0930,0.010435
2720.9566,0.010531
2722.8203,0.010511
2724.6840,0.010539
2726.5476,0.010792
2728.4113,0.010877
2730.2750,0.010839
2732.1386,0.010951
2734.0023,0.010913
2735.8660,0.010824
2737.7296,0.010982
2739.5933,0.011231
2741.4570,0.011258
2743.3206,0.011263
2745.1843,0.011275
2747.0480,0.011203
2748.9117,0.011318
2750.7753,0.011479
2752.6390,0.011447
2754.5027,0.011618
2756.3663,0.011941
2758.2300,0.012074
2760.0937,0.012055
2761.9573,0.011973
2763.8210,0.012019
2765.6847,0.012121
2767.5483,0.012191
2769.4120,0.012281
2771.2757,0.012331
2773.1394,0.012487
2775.0030,0.012611
2776.8667,0.012535
2778.7304,0.012572
2780.5940,0.012828
2782.4577,0.013071
2784.3214,0.013107
2786.1850,0.013217
2788.0487,0.013389
2789.9124,0.013530
2791.7760,0.013703
2793.6397,0.013596
2795.5034,0.013473
2797.3670,0.013647
2799.2307,0.013878
2801.0944,0.014166
2802.9581,0.014277
2804.8217,0.014135
2806.6854,0.014165
2808.5491,0.014514
2810.4127,0.014701
2812.2764,0.014764
2814.1401,0.014978
2816.0037,0.014889
2817.8674,0.014831
2819.7311,0.015177
2821.5947,0.015419
2823.4584,0.015511
2825.3221,0.015549
2827.1857,0.015639
2829.0494,0.015834
2830.9131,0.016103
2832.7768,0.016365
2834.6404,0.016463
2836.5041,0.016801
2838.3678,0.017328
2840.2314,0.017641
2842.0951,0.017915
2843.9588,0.018186
2845.8224,0.018500
2847.6861,0.018923
2849.5498,0.019253
2851.4134,0.019486
2853.2771,0.019576
2855.1408,0.019496
2857.0045,0.019490
2858.8681,0.019591
2860.7318,0.019810
2862.5955,0.020079
2864.4591,0.020143
2866.3228,0.020188
2868.1865,0.020567
2870.0501,0.021149
2871.9138,0.021296
2873.7775,0.021154
2875.6411,0.021314
2877.5048,0.021447
2879.3685,0.021318
2881.2321,0.021196
2883.0958,0.021280
2884.9595,0.021432
2886.8232,0.021524
2888.6868,0.021539
2890.5505,0.021452
2892.4142,0.021555
2894.2778,0.021782
2896.1415,0.021856
2898.0052,0.022003
2899.8688,0.022401
2901.7325,0.022968
2903.5962,0.023546
2905.4598,0.023787
2907.3235,0.023793
2909.1872,0.023934
2911.0509,0.024166
2912.9145,0.024465
2914.7782,0.024944
2916.6419,0.025492
2918.5055,0.025793
2920.3692,0.026016
2922.2329,0.026191
2924.0965,0.026186
2925.9602,0.026118
2927.8239,0.026135
2929.6875,0.026147
2931.5512,0.026024
2933.4149,0.025795
2935.2785,0.025600
2937.1422,0.025553
2939.0059,0.025275
2940.8696,0.024752
2942.7332,0.024423
2944.5969,0.024234
2946.4606,0.024258
2948.3242,0.024572
2950.1879,0.024715
2952.0516,0.024750
2953.9152,0.024803
2955.7789,0.024823
2957.6426,0.024754
2959.5062,0.024541
2961.3699,0.024420
2963.2336,0.024345
2965.0972,0.024111
2966.9609,0.023645
2968.8246,0.023360
2970.6883,0.023302
2972.5519,0.023035
2974.4156,0.022681
2976.2793,0.022406
2978.1429,0.022066
2980.0066,0.021821
2981.8703,0.021506
2983.7339,0.020984
2985.5976,0.020784
2987.4613,0.020861
2989.3249,0.020802
2991.1886,0.020604
2993.0523,0.020633
2994.9160,0.020643
2996.7796,0.020473
2998.6433,0.020514
3000.5070,0.020676
3002.3706,0.020680
3004.2343,0.020604
3006.0980,0.020665
3007.9616,0.020888
3009.8253,0.021070
3011.6890,0.021307
3013.5526,0.021562
3015.4163,0.021662
3017.2800,0.021567
3019.1436,0.021505
3021.0073,0.021770
3022.8710,0.022168
3024.7347,0.022382
3026.5983,0.022417
3028.4620,0.022529
3030.3257,0.022879
3032.1893,0.023337
3034.0530,0.023573
3035.9167,0.023636
3037.7803,0.023596
3039.6440,0.023581
3041.5077,0.023870
3043.3713,0.024111
3045.2350,0.024377
3047.0987,0.024742
3048.9624,0.024863
3050.8260,0.024956
3052.6897,0.025142
3054.5534,0.025462
3056.4170,0.025756
3058.2807,0.025837
3060.1444,0.025963
3062.0080,0.025962
3063.8717,0.025915
3065.7354,0.026170
3067.5990,0.026399
3069.4627,0.026588
3071.3264,0.026742
3073.1900,0.026756
3075.0537,0.026957
3076.9174,0.027101
3078.7811,0.027023
3080.6447,0.026903
3082.5084,0.027069
3084.3721,0.027291
3086.2357,0.027123
3088.0994,0.026918
3089.9631,0.027051
3091.8267,0.027433
3093.6904,0.027504
3095.5541,0.027087
3097.4177,0.026785
3099.2814,0.026904
3101.1451,0.027184
3103.0087,0.027188
3104.8724,0.026983
3106.7361,0.027135
3108.5998,0.027609
3110.4634,0.027883
3112.3271,0.027606
3114.1908,0.027306
3116.0544,0.027640
3117.9181,0.028173
3119.7818,0.028378
3121.6454,0.028205
3123.5091,0.028326
3125.3728,0.028800
3127.2364,0.028767
3129.1001,0.028852
3130.9638,0.029351
3132.8275,0.029442
3134.6911,0.029265
3136.5548,0.029298
3138.4185,0.029768
3140.2821,0.030377
3142.1458,0.030850
3144.0095,0.031061
3145.8731,0.031018
3147.7368,0.031163
3149.6005,0.031470
3151.4641,0.031830
3153.3278,0.032190
3155.1915,0.032686
3157.0551,0.032873
3158.9188,0.032796
3160.7825,0.033133
3162.6462,0.033406
3164.5098,0.033595
3166.3735,0.034000
3168.2372,0.034742
3170.1008,0.035232
3171.9645,0.035186
3173.8282,0.035240
3175.6918,0.035352
3177.5555,0.035700
3179.4192,0.036335
3181.2828,0.036673
3183.1465,0.036584
3185.0102,0.036680
3186.8739,0.037061
3188.7375,0.037117
3190.6012,0.037346
3192.4649,0.037699
3194.3285,0.037884
3196.1922,0.038307
3198.0559,0.038823
3199.9195,0.039094
3201.7832,0.039318
3203.6469,0.039234
3205.5105,0.038915
3207.3742,0.038983
3209.2379,0.039492
3211.1015,0.039903
3212.9652,0.040081
3214.8289,0.040243
3216.6926,0.040307
3218.5562,0.040344
3220.4199,0.040762
3222.2836,0.041152
3224.1472,0.041236
3226.0109,0.041184
3227.8746,0.041093
3229.7382,0.041272
3231.6019,0.041511
3233.4656,0.041946
3235.3292,0.042278
3237.1929,0.042200
3239.0566,0.042200
3240.9202,0.042251
3242.7839,0.042606
3244.6476,0.043210
3246.5113,0.043451
3248.3749,0.043468
3250.2386,0.043668
3252.1023,0.043893
3253.9659,0.044073
3255.8296,0.044311
3257.6933,0.044316
3259.5569,0.044184
3261.4206,0.044493
3263.2843,0.044884
3265.1479,0.044746
3267.0116,0.044509
3268.8753,0.044815
3270.7390,0.045393
3272.6026,0.045667
3274.4663,0.045322
3276.3300,0.045156
3278.1936,0.045279
3280.0573,0.045150
3281.9210,0.045051
3283.7846,0.045118
3285.6483,0.044963
3287.5120,0.044627
3289.3756,0.044323
3291.2393,0.044107
3293.1030,0.044034
3294.9666,0.043932
3296.8303,0.043637
3298.6940,0.043276
3300.5577,0.043085
3302.4213,0.042789
3304.2850,0.042337
3306.1487,0.042149
3308.0123,0.042156
3309.8760,0.042202
3311.7397,0.042093
3313.6033,0.041658
3315.4670,0.040983
3317.3307,0.040750
3319.1943,0.040841
3321.0580,0.040754
3322.9217,0.040402
3324.7854,0.039972
3326.6490,0.039813
3328.5127,0.039579
3330.3764,0.039144
3332.2400,0.038987
3334.1037,0.038799
3335.9674,0.038796
3337.8310,0.038872
3339.6947,0.038901
3341.5584,0.038884
3343.4220,0.038457
3345.2857,0.038093
3347.1494,0.038080
3349.0130,0.037978
3350.8767,0.037795
3352.7404,0.037491
3354.6041,0.037247
3356.4677,0.037378
3358.3314,0.037528
3360.1951,0.037192
3362.0587,0.036934
3363.9224,0.036926
3365.7861,0.036542
3367.6497,0.036112
3369.5134,0.036158
3371.3771,0.036133
3373.2407,0.035745
3375.1044,0.035727
3376.9681,0.036269
3378.8317,0.036051
3380.6954,0.035434
3382.5591,0.035036
3384.4228,0.034799
3386.2864,0.034969
3388.1501,0.034922
3390.0138,0.034796
3391.8774,0.034738
3393.7411,0.034371
3395.6048,0.034107
3397.4684,0.033894
3399.3321,0.033770
3401.1958,0.033757
3403.0594,0.033409
3404.9231,0.033135
3406.7868,0.033239
3408.6505,0.033122
3410.5141,0.032629
3412.3778,0.032458
3414.2415,0.032550
3416.1051,0.032509
3417.9688,0.032323
3419.8325,0.032047
3421.6961,0.031686
3423.5598,0.031317
3425.4235,0.031083
3427.2871,0.030813
3429.1508,0.030591
3431.0145,0.030476
3432.8781,0.030589
3434.7418,0.030298
3436.6055,0.029526
3438.4692,0.029235
3440.3328,0.029409
3442.1965,0.029367
3444.0602,0.029053
3445.9238,0.028632
3447.7875,0.028456
3449.6512,0.028662
3451.5148,0.028235
3453.3785,0.027481
3455.2422,0.027077
3457.1058,0.026858
3458.9695,0.026925
3460.8332,0.026756
3462.6969,0.026463
3464.5605,0.026230
3466.4242,0.026118
3468.2879,0.025855
3470.1515,0.025475
3472.0152,0.025033
3473.8789,0.024701
3475.7425,0.024727
3477.6062,0.024557
3479.4699,0.024285
3481.3335,0.024006
3483.1972,0.023419
3485.0609,0.023140
3486.9245,0.023228
3488.7882,0.023337
3490.6519,0.022720
3492.5156,0.021885
3494.3792,0.021586
3496.2429,0.021598
3498.1066,0.021461
3499.9702,0.021282
3501.8339,0.020903
3503.6976,0.020132
3505.5612,0.019486
3507.4249,0.019690
3509.2886,0.019942
3511.1522,0.019691
3513.0159,0.019445
3514.8796,0.019399
3516.7432,0.019311
3518.6069,0.019124
3520.4706,0.018566
3522.3343,0.017592
3524.1979,0.017069
3526.0616,0.017358
3527.9253,0.017350
3529.7889,0.016664
3531.6526,0.015992
3533.5163,0.015451
3535.3799,0.015257
3537.2436,0.015209
3539.1073,0.014869
3540.9709,0.014757
3542.8346,0.014486
3544.6983,0.013885
3546.5620,0.013396
3548.4256,0.013156
3550.2893,0.013208
3552.1530,0.013064
3554.0166,0.012244
3555.8803,0.011461
3557.7440,0.011425
3559.6076,0.011156
3561.4713,0.010496
3563.3350,0.010334
3565.1986,0.010119
3567.0623,0.009842
3568.9260,0.009712
3570.7896,0.009727
3572.6533,0.009728
3574.5170,0.009383
3576.3807,0.008728
3578.2443,0.008452
3580.1080,0.008448
3581.9717,0.008235
3583.8353,0.007856
3585.6990,0.007463
3587.5627,0.007041
3589.4263,0.006720
3591.2900,0.006540
3593.1537,0.006575
3595.0173,0.006701
3596.8810,0.006544
3598.7447,0.005898
3600.6084,0.005223
3602.4720,0.004933
3604.3357,0.004963
3606.1994,0.004845
3608.0630,0.004392
3609.9267,0.004177
3611.7904,0.004141
3613.6540,0.003844
3615.5177,0.003769
3617.3814,0.003500
3619.2450,0.002653
3621.1087,0.002597
3622.9724,0.003136
3624.8360,0.002897
3626.6997,0.002566
3628.5634,0.002314
3630.4271,0.001843
3632.2907,0.002202
3634.1544,0.002462
3636.0181,0.001609
3637.8817,0.001012
3639.7454,0.001004
3641.6091,0.000830
3643.4727,0.000478
3645.3364,0.000072
3647.2001,-0.000406
3649.0637,-0.000421
3650.9274,-0.000280
3652.7911,-0.000470
3654.6547,-0.000649
3656.5184,-0.000574
3658.3821,-0.000299
3660.2458,-0.000375
3662.1094,-0.000683
3663.9731,-0.000797
3665.8368,-0.001164
3667.7004,-0.001505
3669.5641,-0.001866
3671.4278,-0.001857
3673.2914,-0.001193
3675.1551,-0.001316
3677.0188,-0.001897
3678.8824,-0.001741
3680.7461,-0.001550
3682.6098,-0.001386
3684.4735,-0.001416
3686.3371,-0.001856
3688.2008,-0.002062
3690.0645,-0.002263
3691.9281,-0.002293
3693.7918,-0.001747
3695.6555,-0.001713
3697.5191,-0.001778
3699.3828,-0.001857
3701.2465,-0.002020
3703.1101,-0.002009
3704.9738,-0.002195
3706.8375,-0.002350
3708.7011,-0.002113
3710.5648,-0.002217
3712.4285,-0.002645
3714.2922,-0.002345
3716.1558,-0.001830
3718.0195,-0.001902
3719.8832,-0.002399
3721.7468,-0.002502
3723.6105,-0.002040
3725.4742,-0.001818
3727.3378,-0.001801
3729.2015,-0.001617
3731.0652,-0.001691
3732.9288,-0.002285
3734.7925,-0.002725
3736.6562,-0.002510
3738.5199,-0.001826
3740.3835,-0.001369
3742.2472,-0.001849
3744.1109,-0.002876
3745.9745,-0.002679
3747.8382,-0.001820
3749.7019,-0.002334
3751.5655,-0.002816
3753.4292,-0.002284
3755.2929,-0.001868
3757.1565,-0.001700
3759.0202,-0.001768
3760.8839,-0.001956
3762.7475,-0.001838
3764.6112,-0.001772
3766.4749,-0.001937
3768.3386,-0.001862
3770.2022,-0.001644
3772.0659,-0.001497
3773.9296,-0.001652
3775.7932,-0.002031
3777.6569,-0.002222
3779.5206,-0.002114
3781.3842,-0.001865
3783.2479,-0.001719
3785.1116,-0.001905
3786.9752,-0.001901
3788.8389,-0.001617
3790.7026,-0.001634
3792.5662,-0.001756
3794.4299,-0.001826
3796.2936,-0.002030
3798.1573,-0.002103
3800.0209,-0.001721
3801.8846,-0.001649
3803.7483,-0.001908
3805.6119,-0.001805
3807.4756,-0.002364
3809.3393,-0.002775
3811.2029,-0.002130
3813.0666,-0.001620
3814.9303,-0.001760
3816.7939,-0.001969
3818.6576,-0.001730
3820.5213,-0.001900
3822.3850,-0.002515
3824.2486,-0.002438
3826.1123,-0.001739
3827.9760,-0.001571
3829.8396,-0.001718
3831.7033,-0.001367
3833.5670,-0.001482
3835.4306,-0.001819
3837.2943,-0.001892
3839.1580,-0.001987
3841.0216,-0.002068
3842.8853,-0.001860
3844.7490,-0.001560
3846.6126,-0.001702
3848.4763,-0.001975
3850.3400,-0.001879
3852.2037,-0.002272
3854.0673,-0.003066
3855.9310,-0.002789
3857.7947,-0.001814
3859.6583,-0.001453
3861.5220,-0.001586
3863.3857,-0.002021
3865.2493,-0.002205
3867.1130,-0.002198
3868.9767,-0.002034
3870.8403,-0.001659
3872.7040,-0.001509
3874.5677,-0.001760
3876.4314,-0.001712
3878.2950,-0.001622
3880.1587,-0.001936
3882.0224,-0.001680
3883.8860,-0.001094
3885.7497,-0.001483
3887.6134,-0.002071
3889.4770,-0.001853
3891.3407,-0.001722
3893.2044,-0.002172
3895.0680,-0.002145
3896.9317,-0.001768
3898.7954,-0.001468
3900.6590,-0.001589
3902.5227,-0.001884
3904.3864,-0.001802
3906.2501,-0.001436
3908.1137,-0.001019
3909.9774,-0.001144
3911.8411,-0.001714
3913.7047,-0.001973
3915.5684,-0.001566
3917.4321,-0.001421
3919.2957,-0.001523
3921.1594,-0.001377
3923.0231,-0.001197
3924.8867,-0.001456
3926.7504,-0.001782
3928.6141,-0.001418
3930.4777,-0.001301
3932.3414,-0.001279
3934.2051,-0.001094
3936.0688,-0.001209
3937.9324,-0.001440
3939.7961,-0.001407
3941.6598,-0.001516
3943.5234,-0.001849
3945.3871,-0.001890
3947.2508,-0.001416
3949.1144,-0.001156
3950.9781,-0.001192
3952.8418,-0.001272
3954.7054,-0.001310
3956.5691,-0.001386
3958.4328,-0.001745
3960.2965,-0.001836
3962.1601,-0.001421
3964.0238,-0.001100
3965.8875,-0.001287
3967.7511,-0.001734
3969.6148,-0.001668
3971.4785,-0.001559
3973.3421,-0.001424
3975.2058,-0.001413
3977.0695,-0.001568
3978.9331,-0.001382
3980.7968,-0.001099
3982.6605,-0.001192
3984.5241,-0.001472
3986.3878,-0.001438
3988.2515,-0.001232
3990.1152,-0.001180
3991.9788,-0.001281
3993.8425,-0.001359
3995.7062,-0.001248
3997.5698,-0.001361
3999.4335,-0.001589
