Wavenumber,Intensity
650.4205,0.065004
652.2841,0.064935
654.1478,0.062949
656.0115,0.062362
657.8751,0.065010
659.7388,0.064772
661.6025,0.063314
663.4661,0.063218
665.3298,0.062955
667.1935,0.063132
669.0571,0.064183
670.9208,0.063031
672.7845,0.062818
674.6481,0.063141
676.5118,0.062367
678.3755,0.061093
680.2392,0.060740
682.1028,0.061124
683.9665,0.060193
685.8302,0.059133
687.6938,0.059462
689.5575,0.059317
691.4212,0.058605
693.2848,0.057807
695.1485,0.058510
697.0122,0.059095
698.8758,0.057354
700.7395,0.056518
702.6032,0.056658
704.4669,0.056225
706.3305,0.055774
708.1942,0.055471
710.0579,0.055413
711.9215,0.054834
713.7852,0.054165
715.6489,0.053582
717.5125,0.053451
719.3762,0.053755
721.2399,0.053279
723.1035,0.052539
724.9672,0.051679
726.8309,0.050916
728.6945,0.050665
730.5582,0.049939
732.4219,0.049556
734.2856,0.049995
736.1492,0.050345
738.0129,0.050123
739.8766,0.049811
741.7402,0.049338
743.6039,0.048752
745.4676,0.048587
747.3312,0.048562
749.1949,0.048358
751.0586,0.047792
752.9222,0.047700
754.7859,0.047810
756.6496,0.047388
758.5132,0.046863
760.3769,0.046208
762.2406,0.045950
764.1043,0.046084
765.9679,0.045657
767.8316,0.045275
769.6953,0.045417
771.5589,0.045328
773.4226,0.045058
775.2863,0.044769
777.1499,0.044196
779.0136,0.044149
780.8773,0.044195
782.7409,0.043728
784.6046,0.043799
786.4683,0.043945
788.3320,0.043327
790.1956,0.042718
792.0593,0.042650
793.9230,0.042475
795.7866,0.041927
797.6503,0.041601
799.5140,0.041512
801.3776,0.041687
803.2413,0.041633
805.1050,0.040922
806.9686,0.040616
808.8323,0.040709
810.6960,0.040513
812.5596,0.040406
814.4233,0.040536
816.2870,0.040488
818.1507,0.040382
820.0143,0.040590
821.8780,0.040558
823.7417,0.040251
825.6053,0.040115
827.4690,0.039868
829.3327,0.039716
831.1963,0.039863
833.0600,0.039716
834.9237,0.039551
836.7873,0.039697
838.6510,0.039802
840.5147,0.039838
842.3784,0.039820
844.2420,0.039841
846.1057,0.039992
847.9694,0.040070
849.8330,0.040250
851.6967,0.040332
853.5604,0.040382
855.4240,0.040372
857.2877,0.040442
859.1514,0.040626
861.0150,0.040740
862.8787,0.040863
864.7424,0.040956
866.6060,0.040883
868.4697,0.040906
870.3334,0.041036
872.1971,0.040983
874.0607,0.040910
875.9244,0.040809
877.7881,0.040476
879.6517,0.040149
881.5154,0.039834
883.3791,0.039649
885.2427,0.039448
887.1064,0.039148
888.9701,0.038981
890.8337,0.038989
892.6974,0.038835
894.5611,0.038721
896.4247,0.038715
898.2884,0.038639
900.1521,0.038650
902.0158,0.038592
903.8794,0.038474
905.7431,0.038623
907.6068,0.038830
909.4704,0.038979
911.3341,0.039201
913.1978,0.039452
915.0614,0.039670
916.9251,0.039972
918.7888,0.040399
920.6524,0.040789
922.5161,0.041098
924.3798,0.041450
926.2435,0.041656
928.1071,0.041731
929.9708,0.041933
931.8345,0.042134
933.6981,0.042151
935.5618,0.042034
937.4255,0.042008
939.2891,0.042131
941.1528,0.042179
943.0165,0.042114
944.8801,0.041989
946.7438,0.041906
948.6075,0.041749
950.4711,0.041501
952.3348,0.041405
954.1985,0.041527
956.0622,0.041662
957.9258,0.041781
959.7895,0.041996
961.6532,0.042471
963.5168,0.042994
965.3805,0.043481
967.2442,0.044060
969.1078,0.044709
970.9715,0.045220
972.8352,0.045637
974.6988,0.046134
976.5625,0.046570
978.4262,0.046938
980.2899,0.047404
982.1535,0.047851
984.0172,0.048114
985.8809,0.048160
987.7445,0.048139
989.6082,0.048187
991.4719,0.048212
993.3355,0.048117
995.1992,0.048029
997.0629,0.047983
998.9265,0.047859
1000.7902,0.047770
1002.6539,0.047758
1004.5175,0.047858
1006.3812,0.048097
1008.2449,0.048531
1010.1086,0.049102
1011.9722,0.049753
1013.8359,0.050680
1015.6996,0.051707
1017.5632,0.052681
1019.4269,0.053653
1021.2906,0.054579
1023.1542,0.055431
1025.0179,0.056299
1026.8816,0.057187
1028.7452,0.057994
1030.6089,0.058777
1032.4726,0.059574
1034.3362,0.060307
1036.1999,0.060963
1038.0636,0.061620
1039.9273,0.062169
1041.7909,0.062620
1043.6546,0.063065
1045.5183,0.063447
1047.3819,0.063868
1049.2456,0.064300
1051.1093,0.064719
1052.9729,0.065202
1054.8366,0.065645
1056.7003,0.066061
1058.5639,0.066545
1060.4276,0.067099
1062.2913,0.067530
1064.1550,0.067927
1066.0186,0.068379
1067.8823,0.068779
1069.7460,0.069042
1071.6096,0.069151
1073.4733,0.069233
1075.3370,0.069166
1077.2006,0.068774
1079.0643,0.068183
1080.9280,0.067456
1082.7916,0.066544
1084.6553,0.065561
1086.5190,0.064490
1088.3826,0.063400
1090.2463,0.062320
1092.1100,0.061407
1093.9737,0.060732
1095.8373,0.059971
1097.7010,0.059147
1099.5647,0.058339
1101.4283,0.057504
1103.2920,0.056799
1105.1557,0.056246
1107.0193,0.055669
1108.8830,0.055101
1110.7467,0.054541
1112.6103,0.053977
1114.4740,0.053426
1116.3377,0.052858
1118.2014,0.052242
1120.0650,0.051543
1121.9287,0.050870
1123.7924,0.050273
1125.6560,0.049561
1127.5197,0.048792
1129.3834,0.048095
1131.2470,0.047434
1133.1107,0.046652
1134.9744,0.045886
1136.8380,0.045187
1138.7017,0.044503
1140.5654,0.043915
1142.4290,0.043312
1144.2927,0.042759
1146.1564,0.042330
1148.0201,0.041976
1149.8837,0.041597
1151.7474,0.041250
1153.6111,0.041010
1155.4747,0.040631
1157.3384,0.040060
1159.2021,0.039415
1161.0657,0.038709
1162.9294,0.038085
1164.7931,0.037371
1166.6567,0.036495
1168.5204,0.035495
1170.3841,0.034494
1172.2477,0.033481
1174.1114,0.032421
1175.9751,0.031377
1177.8388,0.030332
1179.7024,0.029460
1181.5661,0.028818
1183.4298,0.028258
1185.2934,0.027842
1187.1571,0.027612
1189.0208,0.027398
1190.8844,0.027202
1192.7481,0.027064
1194.6118,0.027004
1196.4754,0.027103
1198.3391,0.027274
1200.2028,0.027398
1202.0665,0.027558
1203.9301,0.027740
1205.7938,0.027837
1207.6575,0.027959
1209.5211,0.028087
1211.3848,0.028244
1213.2485,0.028421
1215.1121,0.028594
1216.9758,0.028834
1218.8395,0.029094
1220.7031,0.029519
1222.5668,0.030056
1224.4305,0.030519
1226.2941,0.030915
1228.1578,0.031330
1230.0215,0.031764
1231.8852,0.032087
1233.7488,0.032368
1235.6125,0.032646
1237.4762,0.032843
1239.3398,0.032926
1241.2035,0.032956
1243.0672,0.032840
1244.9308,0.032715
1246.7945,0.032609
1248.6582,0.032420
1250.5218,0.032108
1252.3855,0.031680
1254.2492,0.031352
1256.1129,0.031132
1257.9765,0.030896
1259.8402,0.030607
1261.7039,0.030369
1263.5675,0.030194
1265.4312,0.030077
1267.2949,0.030028
1269.1585,0.029889
1271.0222,0.029726
1272.8859,0.029586
1274.7495,0.029458
1276.6132,0.029331
1278.4769,0.029203
1280.3405,0.029112
1282.2042,0.029031
1284.0679,0.028897
1285.9316,0.028710
1287.7952,0.028552
1289.6589,0.028558
1291.5226,0.028599
1293.3862,0.028551
1295.2499,0.028436
1297.1136,0.028425
1298.9772,0.028546
1300.8409,0.028731
1302.7046,0.028887
1304.5682,0.028998
1306.4319,0.029201
1308.2956,0.029380
1310.1592,0.029497
1312.0229,0.029606
1313.8866,0.029663
1315.7503,0.029725
1317.6139,0.029769
1319.4776,0.029716
1321.3413,0.029633
1323.2049,0.029445
1325.0686,0.029156
1326.9323,0.029062
1328.7959,0.029149
1330.6596,0.029149
1332.5233,0.028963
1334.3869,0.028874
1336.2506,0.028922
1338.1143,0.028988
1339.9780,0.028983
1341.8416,0.028767
1343.7053,0.028593
1345.5690,0.028633
1347.4326,0.028726
1349.2963,0.028684
1351.1600,0.028592
1353.0236,0.028565
1354.8873,0.028593
1356.7510,0.028433
1358.6146,0.028342
1360.4783,0.028683
1362.3420,0.029175
1364.2056,0.029361
1366.0693,0.029731
1367.9330,0.030288
1369.7967,0.030726
1371.6603,0.031307
1373.5240,0.032142
1375.3877,0.032827
1377.2513,0.033243
1379.1150,0.033773
1380.9787,0.034199
1382.8423,0.034551
1384.7060,0.035191
1386.5697,0.036042
1388.4333,0.036543
1390.2970,0.036818
1392.1607,0.037405
1394.0244,0.038212
1395.8880,0.038887
1397.7517,0.039385
1399.6154,0.039530
1401.4790,0.039531
1403.3427,0.039712
1405.2064,0.039755
1407.0700,0.039278
1408.9337,0.038575
1410.7974,0.037842
1412.6610,0.037122
1414.5247,0.036300
1416.3884,0.035739
1418.2520,0.035443
1420.1157,0.034603
1421.9794,0.033836
1423.8431,0.033300
1425.7067,0.032828
1427.5704,0.032735
1429.4341,0.032735
1431.2977,0.032778
1433.1614,0.033103
1435.0251,0.034007
1436.8887,0.034917
1438.7524,0.034928
1440.6161,0.034957
1442.4797,0.035364
1444.3434,0.035655
1446.2071,0.035886
1448.0707,0.035990
1449.9344,0.035935
1451.7981,0.035613
1453.6618,0.035433
1455.5254,0.035776
1457.3891,0.035463
1459.2528,0.033937
1461.1164,0.033013
1462.9801,0.032609
1464.8438,0.032203
1466.7074,0.031353
1468.5711,0.030572
1470.4348,0.030195
1472.2984,0.029800
1474.1621,0.028955
1476.0258,0.028162
1477.8895,0.027560
1479.7531,0.027211
1481.6168,0.027057
1483.4805,0.026972
1485.3441,0.027167
1487.2078,0.028068
1489.0715,0.029250
1490.9351,0.029810
1492.7988,0.030211
1494.6625,0.031312
1496.5261,0.033135
1498.3898,0.034422
1500.2535,0.034991
1502.1171,0.035665
1503.9808,0.037067
1505.8445,0.040053
1507.7082,0.043045
1509.5718,0.043756
1511.4355,0.044769
1513.2992,0.046265
1515.1628,0.047825
1517.0265,0.048975
1518.8902,0.049835
1520.7538,0.050913
1522.6175,0.052191
1524.4812,0.052904
1526.3448,0.053784
1528.2085,0.054351
1530.0722,0.055047
1531.9359,0.056173
1533.7995,0.056878
1535.6632,0.056980
1537.5269,0.057720
1539.3905,0.059344
1541.2542,0.059930
1543.1179,0.059450
1544.9815,0.059018
1546.8452,0.058428
1548.7089,0.057950
1550.5725,0.057097
1552.4362,0.055820
1554.2999,0.054459
1556.1635,0.054132
1558.0272,0.054682
1559.8909,0.052992
1561.7546,0.050651
1563.6182,0.049224
1565.4819,0.048201
1567.3456,0.047646
1569.2092,0.046784
1571.0729,0.045364
1572.9366,0.044624
1574.8002,0.044649
1576.6639,0.044474
1578.5276,0.043574
1580.3912,0.043035
1582.2549,0.042989
1584.1186,0.042984
1585.9822,0.043103
1587.8459,0.043362
1589.7096,0.043930
1591.5733,0.044788
1593.4369,0.045515
1595.3006,0.046303
1597.1643,0.047115
1599.0279,0.048135
1600.8916,0.049380
1602.7553,0.050875
1604.6189,0.052294
1606.4826,0.053854
1608.3463,0.055663
1610.2099,0.057344
1612.0736,0.058963
1613.9373,0.060844
1615.8010,0.063307
1617.6646,0.065559
1619.5283,0.066882
1621.3920,0.068719
1623.2556,0.071027
1625.1193,0.072937
1626.9830,0.074549
1628.8466,0.075920
1630.7103,0.076672
1632.5740,0.077470
1634.4376,0.078753
1636.3013,0.079544
1638.1650,0.079371
1640.0286,0.078718
1641.8923,0.077958
1643.7560,0.077589
1645.6197,0.077422
1647.4833,0.076009
1649.3470,0.074788
1651.2107,0.074581
1653.0743,0.073844
1654.9380,0.071201
1656.8017,0.069157
1658.6653,0.067424
1660.5290,0.065730
1662.3927,0.063781
1664.2563,0.061547
1666.1200,0.059593
1667.9837,0.057932
1669.8474,0.055526
1671.7110,0.053132
1673.5747,0.051120
1675.4384,0.048759
1677.3020,0.046356
1679.1657,0.044320
1681.0294,0.042274
1682.8930,0.040157
1684.7567,0.036785
1686.6204,0.034436
1688.4840,0.032397
1690.3477,0.029980
1692.2114,0.027803
1694.0750,0.025880
1695.9387,0.023307
1697.8024,0.021334
1699.6661,0.019136
1701.5297,0.016797
1703.3934,0.015878
1705.2571,0.014790
1707.1207,0.013402
1708.9844,0.012589
1710.8481,0.012057
1712.7117,0.011685
1714.5754,0.011311
1716.4391,0.010856
1718.3027,0.009967
1720.1664,0.009477
1722.0301,0.009023
1723.8937,0.008474
1725.7574,0.008056
1727.6211,0.007680
1729.4848,0.007200
1731.3484,0.007042
1733.2121,0.006211
1735.0758,0.005250
1736.9394,0.005190
1738.8031,0.004799
1740.6668,0.004123
1742.5304,0.003710
1744.3941,0.003388
1746.2578,0.003501
1748.1214,0.003439
1749.9851,0.002915
1751.8488,0.002521
1753.7125,0.002406
1755.5761,0.002049
1757.4398,0.001837
1759.3035,0.001974
1761.1671,0.001788
1763.0308,0.001352
1764.8945,0.001357
1766.7581,0.001390
1768.6218,0.001407
1770.4855,0.001380
1772.3491,0.001365
1774.2128,0.001172
1776.0765,0.000969
1777.9401,0.001127
1779.8038,0.001210
1781.6675,0.001199
1783.5312,0.000996
1785.3948,0.000758
1787.2585,0.000807
1789.1222,0.000999
1790.9858,0.000997
1792.8495,0.000841
1794.7132,0.000725
1796.5768,0.000752
1798.4405,0.000792
1800.3042,0.000656
1802.1678,0.000417
1804.0315,0.000328
1805.8952,0.000363
1807.7589,0.000385
1809.6225,0.000308
1811.4862,0.000258
1813.3499,0.000360
1815.2135,0.000129
1817.0772,-0.000028
1818.9409,0.000236
1820.8045,0.000409
1822.6682,0.000209
1824.5319,0.000237
1826.3955,0.000546
1828.2592,0.000424
1830.1229,0.000504
1831.9865,0.000449
1833.8502,0.000065
1835.7139,0.000230
1837.5776,0.000491
1839.4412,0.000311
1841.3049,0.000089
1843.1686,0.000066
1845.0322,0.000298
1846.8959,0.000257
1848.7596,0.000097
1850.6232,0.000296
1852.4869,0.000437
1854.3506,0.000298
1856.2142,0.000172
1858.0779,0.000395
1859.9416,0.000452
1861.8052,0.000196
1863.6689,0.000305
1865.5326,0.000447
1867.3963,0.000350
1869.2599,0.000223
1871.1236,-0.000142
1872.9873,-0.000195
1874.8509,0.000166
1876.7146,0.000273
1878.5783,0.000513
1880.4419,0.000754
1882.3056,0.000464
1884.1693,0.000449
1886.0329,0.000409
1887.8966,0.000208
1889.7603,0.000127
1891.6240,0.000170
1893.4876,0.000482
1895.3513,0.000701
1897.2150,0.000748
1899.0786,0.000608
1900.9423,0.000416
1902.8060,0.000709
1904.6696,0.000670
1906.5333,0.000171
1908.3970,0.000510
1910.2606,0.000718
1912.1243,0.000494
1913.9880,0.000606
1915.8516,0.000632
1917.7153,0.000583
1919.5790,0.000741
1921.4427,0.000968
1923.3063,0.000903
1925.1700,0.000306
1927.0337,0.000054
1928.8973,0.000247
1930.7610,0.000389
1932.6247,0.000750
1934.4883,0.001108
1936.3520,0.000871
1938.2157,0.000421
1940.0793,0.000645
1941.9430,0.001447
1943.8067,0.002285
1945.6704,0.002050
1947.5340,0.001104
1949.3977,0.001561
1951.2614,0.001792
1953.1250,0.001482
1954.9887,0.001632
1956.8524,0.001236
1958.7160,0.001418
1960.5797,0.002186
1962.4434,0.002594
1964.3070,0.002965
1966.1707,0.003701
1968.0344,0.002795
1969.8980,0.001323
1971.7617,0.001510
1973.6254,0.002169
1975.4891,0.002729
1977.3527,0.003905
1979.2164,0.004227
1981.0801,0.004138
1982.9437,0.004403
1984.8074,0.003248
1986.6711,0.001985
1988.5347,0.002488
1990.3984,0.003661
1992.2621,0.005049
1994.1257,0.004206
1995.9894,0.002306
1997.8531,0.001871
1999.7167,0.001349
2001.5804,0.001535
2003.4441,0.002875
2005.3078,0.003443
2007.1714,0.003381
2009.0351,0.003540
2010.8988,0.003201
2012.7624,0.003287
2014.6261,0.003998
2016.4898,0.004261
2018.3534,0.004183
2020.2171,0.004673
2022.0808,0.004727
2023.9444,0.003111
2025.8081,0.003109
2027.6718,0.004497
2029.5355,0.004912
2031.3991,0.004292
2033.2628,0.003828
2035.1265,0.004761
2036.9901,0.004977
2038.8538,0.004627
2040.7175,0.005358
2042.5811,0.005541
2044.4448,0.005760
2046.3085,0.005670
2048.1721,0.005886
2050.0358,0.006520
2051.8995,0.006408
2053.7631,0.005112
2055.6268,0.004340
2057.4905,0.004698
2059.3542,0.004944
2061.2178,0.004560
2063.0815,0.004075
2064.9452,0.004717
2066.8088,0.005563
2068.6725,0.005638
2070.5362,0.004661
2072.3998,0.004043
2074.2635,0.005033
2076.1272,0.005853
2077.9908,0.005152
2079.8545,0.004170
2081.7182,0.004051
2083.5819,0.004240
2085.4455,0.004326
2087.3092,0.004411
2089.1729,0.004188
2091.0365,0.003411
2092.9002,0.003154
2094.7639,0.003097
2096.6275,0.003506
2098.4912,0.003928
2100.3549,0.003766
2102.2185,0.004260
2104.0822,0.004446
2105.9459,0.003835
2107.8095,0.003513
2109.6732,0.003482
2111.5369,0.003903
2113.4006,0.004476
2115.2642,0.004338
2117.1279,0.004091
2118.9916,0.003920
2120.8552,0.003372
2122.7189,0.003133
2124.5826,0.003222
2126.4462,0.003436
2128.3099,0.003549
2130.1736,0.002877
2132.0372,0.002163
2133.9009,0.002598
2135.7646,0.003657
2137.6282,0.004575
2139.4919,0.004767
2141.3556,0.004374
2143.2193,0.003501
2145.0829,0.003156
2146.9466,0.003779
2148.8103,0.004284
2150.6739,0.005081
2152.5376,0.006022
2154.4013,0.005491
2156.2649,0.004704
2158.1286,0.004914
2159.9923,0.006482
2161.8559,0.008146
2163.7196,0.007869
2165.5833,0.006741
2167.4470,0.006598
2169.3106,0.006669
2171.1743,0.006332
2173.0380,0.005556
2174.9016,0.004895
2176.7653,0.005663
2178.6290,0.006579
2180.4926,0.006154
2182.3563,0.005536
2184.2200,0.005421
2186.0836,0.005853
2187.9473,0.006332
2189.8110,0.006576
2191.6746,0.006333
2193.5383,0.006112
2195.4020,0.006737
2197.2657,0.007360
2199.1293,0.007133
2200.9930,0.007129
2202.8567,0.007241
2204.7203,0.006334
2206.5840,0.005324
2208.4477,0.005075
2210.3113,0.005251
2212.1750,0.005171
2214.0387,0.005162
2215.9023,0.005986
2217.7660,0.006412
2219.6297,0.005894
2221.4934,0.006142
2223.3570,0.007046
2225.2207,0.007147
2227.0844,0.007125
2228.9480,0.006436
2230.8117,0.005589
2232.6754,0.006367
2234.5390,0.006945
2236.4027,0.006978
2238.2664,0.006989
2240.1300,0.006557
2241.9937,0.006438
2243.8574,0.006271
2245.7210,0.006245
2247.5847,0.006542
2249.4484,0.006732
2251.3121,0.006377
2253.1757,0.005606
2255.0394,0.005470
2256.9031,0.005890
2258.7667,0.005900
2260.6304,0.005685
2262.4941,0.005918
2264.3577,0.006140
2266.2214,0.006231
2268.0851,0.006976
2269.9487,0.007785
2271.8124,0.007443
2273.6761,0.006925
2275.5397,0.007141
2277.4034,0.007404
2279.2671,0.007114
2281.1308,0.006932
2282.9944,0.007060
2284.8581,0.007079
2286.7218,0.006941
2288.5854,0.006567
2290.4491,0.006314
2292.3128,0.006273
2294.1764,0.006462
2296.0401,0.006653
2297.9038,0.006399
2299.7674,0.006063
2301.6311,0.006197
2303.4948,0.006563
2305.3585,0.006538
2307.2221,0.006185
2309.0858,0.006184
2310.9495,0.006421
2312.8131,0.006479
2314.6768,0.006532
2316.5405,0.006422
2318.4041,0.006466
2320.2678,0.006838
2322.1315,0.007436
2323.9951,0.007602
2325.8588,0.006720
2327.7225,0.005960
2329.5861,0.005921
2331.4498,0.005736
2333.3135,0.005713
2335.1772,0.006018
2337.0408,0.006023
2338.9045,0.006340
2340.7682,0.006798
2342.6318,0.006508
2344.4955,0.006153
2346.3592,0.006060
2348.2228,0.006005
2350.0865,0.006025
2351.9502,0.006215
2353.8138,0.006485
2355.6775,0.006291
2357.5412,0.006155
2359.4049,0.007018
2361.2685,0.007220
2363.1322,0.005756
2364.9959,0.005750
2366.8595,0.006728
2368.7232,0.007085
2370.5869,0.007121
2372.4505,0.006503
2374.3142,0.006131
2376.1779,0.006360
2378.0415,0.006512
2379.9052,0.006209
2381.7689,0.005978
2383.6325,0.006156
2385.4962,0.006185
2387.3599,0.006221
2389.2236,0.006399
2391.0872,0.006268
2392.9509,0.006079
2394.8146,0.006194
2396.6782,0.006159
2398.5419,0.006111
2400.4056,0.006372
2402.2692,0.006470
2404.1329,0.006356
2405.9966,0.006277
2407.8602,0.006369
2409.7239,0.006452
2411.5876,0.006525
2413.4512,0.006628
2415.3149,0.006580
2417.1786,0.006618
2419.0423,0.006594
2420.9059,0.006330
2422.7696,0.006436
2424.6333,0.006839
2426.4969,0.006925
2428.3606,0.006977
2430.2243,0.006987
2432.0879,0.006946
2433.9516,0.007007
2435.8153,0.006920
2437.6789,0.006871
2439.5426,0.006947
2441.4063,0.007018
2443.2700,0.007118
2445.1336,0.007116
2446.9973,0.007003
2448.8610,0.007228
2450.7246,0.007465
2452.5883,0.007125
2454.4520,0.006810
2456.3156,0.006926
2458.1793,0.006958
2460.0430,0.006714
2461.9066,0.006706
2463.7703,0.007041
2465.6340,0.007082
2467.4976,0.006695
2469.3613,0.006646
2471.2250,0.006898
2473.0887,0.006901
2474.9523,0.006880
2476.8160,0.006966
2478.6797,0.007180
2480.5433,0.007162
2482.4070,0.006904
2484.2707,0.006822
2486.1343,0.006711
2487.9980,0.006446
2489.8617,0.006333
2491.7253,0.006534
2493.5890,0.006711
2495.4527,0.006459
2497.3164,0.006350
2499.1800,0.006523
2501.0437,0.006699
2502.9074,0.006901
2504.7710,0.007028
2506.6347,0.006914
2508.4984,0.006754
2510.3620,0.006827
2512.2257,0.006993
2514.0894,0.006707
2515.9530,0.006438
2517.8167,0.006380
2519.6804,0.006407
2521.5440,0.006280
2523.4077,0.006533
2525.2714,0.006928
2527.1351,0.006868
2528.9987,0.006834
2530.8624,0.006772
2532.7261,0.006651
2534.5897,0.006655
2536.4534,0.006751
2538.3171,0.006872
2540.1807,0.006840
2542.0444,0.006837
2543.9081,0.006637
2545.7717,0.006734
2547.6354,0.006856
2549.4991,0.006579
2551.3627,0.006447
2553.2264,0.006757
2555.0901,0.007118
2556.9538,0.007336
2558.8174,0.007397
2560.6811,0.007152
2562.5448,0.006993
2564.4084,0.007020
2566.2721,0.007058
2568.1358,0.007032
2569.9994,0.007029
2571.8631,0.007168
2573.7268,0.007232
2575.5904,0.007354
2577.4541,0.007755
2579.3178,0.007869
2581.1815,0.007576
2583.0451,0.007586
2584.9088,0.007410
2586.7725,0.007368
2588.6361,0.007494
2590.4998,0.007487
2592.3635,0.007635
2594.2271,0.007718
2596.0908,0.007780
2597.9545,0.007947
2599.8181,0.007953
2601.6818,0.008055
2603.5455,0.008127
2605.4091,0.008122
2607.2728,0.008229
2609.1365,0.008471
2611.0002,0.008607
2612.8638,0.008493
2614.7275,0.008463
2616.5912,0.008415
2618.4548,0.008471
2620.3185,0.008713
2622.1822,0.008725
2624.0458,0.008837
2625.9095,0.008993
2627.7732,0.008851
2629.6368,0.008918
2631.5005,0.009176
2633.3642,0.009245
2635.2279,0.009230
2637.0915,0.009351
2638.9552,0.009420
2640.8189,0.009469
2642.6825,0.009550
2644.5462,0.009625
2646.4099,0.009510
2648.2735,0.009404
2650.1372,0.009504
2652.0009,0.009780
2653.8645,0.009882
2655.7282,0.009875
2657.5919,0.009809
2659.4555,0.009680
2661.3192,0.009777
2663.1829,0.009704
2665.0466,0.009594
2666.9102,0.009726
2668.7739,0.009881
2670.6376,0.010110
2672.5012,0.010089
2674.3649,0.010065
2676.2286,0.010311
2678.0922,0.010497
2679.9559,0.010465
2681.8196,0.010455
2683.6832,0.010573
2685.5469,0.010579
2687.4106,0.010706
2689.2742,0.010802
2691.1379,0.010759
2693.0016,0.010851
2694.8653,0.011132
2696.7289,0.011387
2698.5926,0.011306
2700.4563,0.011146
2702.3199,0.011214
2704.1836,0.011429
2706.0473,0.011605
2707.9109,0.011752
2709.7746,0.011969
2711.6383,0.011976
2713.5019,0.011795
2715.3656,0.011722
2717.2293,0.012122
2719.0930,0.012391
2720.9566,0.012432
2722.8203,0.012546
2724.6840,0.012490
2726.5476,0.012449
2728.4113,0.012583
2730.2750,0.012730
2732.1386,0.012811
2734.0023,0.012899
2735.8660,0.013119
2737.7296,0.013328
2739.5933,0.013433
2741.4570,0.013599
2743.3206,0.013819
2745.1843,0.013891
2747.0480,0.013796
2748.9117,0.013765
2750.7753,0.014067
2752.6390,0.014244
2754.5027,0.014108
2756.3663,0.014142
2758.2300,0.014451
2760.0937,0.014781
2761.9573,0.014939
2763.8210,0.014869
2765.6847,0.014946
2767.5483,0.015351
2769.4120,0.015493
2771.2757,0.015184
2773.1394,0.015182
2775.0030,0.015474
2776.8667,0.015693
2778.7304,0.015889
2780.5940,0.016147
2782.4577,0.016157
2784.3214,0.016123
2786.1850,0.016167
2788.0487,0.016487
2789.9124,0.016599
2791.7760,0.016511
2793.6397,0.016686
2795.5034,0.016824
2797.3670,0.016907
2799.2307,0.017048
2801.0944,0.017234
2802.9581,0.017509
2804.8217,0.017563
2806.6854,0.017552
2808.5491,0.017738
2810.4127,0.017925
2812.2764,0.017860
2814.1401,0.017914
2816.0037,0.018078
2817.8674,0.018280
2819.7311,0.018381
2821.5947,0.018626
2823.4584,0.018892
2825.3221,0.018748
2827.1857,0.018774
2829.0494,0.019190
2830.9131,0.019430
2832.7768,0.019595
2834.6404,0.019814
2836.5041,0.019956
2838.3678,0.019954
2840.2314,0.020098
2842.0951,0.020396
2843.9588,0.020863
2845.8224,0.021215
2847.6861,0.021575
2849.5498,0.021915
2851.4134,0.022218
2853.2771,0.022575
2855.1408,0.022711
2857.0045,0.022543
2858.8681,0.022517
2860.7318,0.022787
2862.5955,0.023078
2864.4591,0.023290
2866.3228,0.023586
2868.1865,0.023998
2870.0501,0.024351
2871.9138,0.024550
2873.7775,0.024751
2875.6411,0.024872
2877.5048,0.024731
2879.3685,0.024518
2881.2321,0.024571
2883.0958,0.024880
2884.9595,0.025008
2886.8232,0.025037
2888.6868,0.025057
2890.5505,0.025142
2892.4142,0.025218
2894.2778,0.025353
2896.1415,0.025600
2898.0052,0.025888
2899.8688,0.026125
2901.7325,0.026271
2903.5962,0.026468
2905.4598,0.026676
2907.3235,0.027008
2909.1872,0.027317
2911.0509,0.027642
2912.9145,0.028005
2914.7782,0.028597
2916.6419,0.029073
2918.5055,0.029531
2920.3692,0.029648
2922.2329,0.029692
2924.0965,0.029941
2925.9602,0.030348
2927.8239,0.030506
2929.6875,0.030391
2931.5512,0.030458
2933.4149,0.030589
2935.2785,0.030320
2937.1422,0.030285
2939.0059,0.030374
2940.8696,0.030425
2942.7332,0.030339
2944.5969,0.030040
2946.4606,0.030038
2948.3242,0.030264
2950.1879,0.030377
2952.0516,0.030426
2953.9152,0.030803
2955.7789,0.031131
2957.6426,0.031384
2959.5062,0.031533
2961.3699,0.031374
2963.2336,0.031199
2965.0972,0.031028
2966.9609,0.030891
2968.8246,0.030852
2970.6883,0.030853
2972.5519,0.030513
2974.4156,0.030383
2976.2793,0.030285
2978.1429,0.029790
2980.0066,0.029321
2981.8703,0.029526
2983.7339,0.029741
2985.5976,0.029577
2987.4613,0.029427
2989.3249,0.029395
2991.1886,0.029291
2993.0523,0.029515
2994.9160,0.029616
2996.7796,0.029444
2998.6433,0.029377
3000.5070,0.029514
3002.3706,0.029410
3004.2343,0.029143
3006.0980,0.029313
3007.9616,0.029971
3009.8253,0.030267
3011.6890,0.030565
3013.5526,0.030733
3015.4163,0.030741
3017.2800,0.030633
3019.1436,0.030930
3021.0073,0.031149
3022.8710,0.031476
3024.7347,0.031824
3026.5983,0.032153
3028.4620,0.032672
3030.3257,0.032978
3032.1893,0.033141
3034.0530,0.033397
3035.9167,0.033300
3037.7803,0.033559
3039.6440,0.034053
3041.5077,0.034129
3043.3713,0.033989
3045.2350,0.034149
3047.0987,0.034365
3048.9624,0.034680
3050.8260,0.035063
3052.6897,0.035268
3054.5534,0.035532
3056.4170,0.035995
3058.2807,0.036131
3060.1444,0.036217
3062.0080,0.036381
3063.8717,0.036818
3065.7354,0.037097
3067.5990,0.037070
3069.4627,0.036995
3071.3264,0.037309
3073.1900,0.037694
3075.0537,0.038018
3076.9174,0.037972
3078.7811,0.038002
3080.6447,0.037920
3082.5084,0.037971
3084.3721,0.037958
3086.2357,0.037949
3088.0994,0.038054
3089.9631,0.038418
3091.8267,0.038755
3093.6904,0.038676
3095.5541,0.038411
3097.4177,0.038803
3099.2814,0.038864
3101.1451,0.038518
3103.0087,0.038609
3104.8724,0.039023
3106.7361,0.038935
3108.5998,0.039103
3110.4634,0.039368
3112.3271,0.039466
3114.1908,0.039595
3116.0544,0.039919
3117.9181,0.039851
3119.7818,0.039976
3121.6454,0.039938
3123.5091,0.039872
3125.3728,0.040201
3127.2364,0.040793
3129.1001,0.040828
3130.9638,0.040928
3132.8275,0.041367
3134.6911,0.041639
3136.5548,0.041394
3138.4185,0.041640
3140.2821,0.041987
3142.1458,0.042269
3144.0095,0.042263
3145.8731,0.042474
3147.7368,0.042943
3149.6005,0.043268
3151.4641,0.043360
3153.3278,0.043679
3155.1915,0.044062
3157.0551,0.044493
3158.9188,0.044801
3160.7825,0.045099
3162.6462,0.045226
3164.5098,0.045265
3166.3735,0.045360
3168.2372,0.045626
3170.1008,0.045971
3171.9645,0.046200
3173.8282,0.046645
3175.6918,0.047281
3177.5555,0.047289
3179.4192,0.047295
3181.2828,0.047567
3183.1465,0.047685
3185.0102,0.048095
3186.8739,0.048576
3188.7375,0.049053
3190.6012,0.049420
3192.4649,0.049357
3194.3285,0.049399
3196.1922,0.049374
3198.0559,0.049890
3199.9195,0.050145
3201.7832,0.049968
3203.6469,0.050051
3205.5105,0.050121
3207.3742,0.050041
3209.2379,0.050435
3211.1015,0.050604
3212.9652,0.050795
3214.8289,0.050824
3216.6926,0.050933
3218.5562,0.050839
3220.4199,0.051428
3222.2836,0.051920
3224.1472,0.051921
3226.0109,0.051729
3227.8746,0.051718
3229.7382,0.051717
3231.6019,0.052025
3233.4656,0.052218
3235.3292,0.052646
3237.1929,0.052937
3239.0566,0.053103
3240.9202,0.052983
3242.7839,0.053218
3244.6476,0.053226
3246.5113,0.053358
3248.3749,0.053334
3250.2386,0.053500
3252.1023,0.053715
3253.9659,0.054036
3255.8296,0.054257
3257.6933,0.054424
3259.5569,0.054496
3261.4206,0.054687
3263.2843,0.054866
3265.1479,0.055046
3267.0116,0.055234
3268.8753,0.055698
3270.7390,0.055396
3272.6026,0.055423
3274.4663,0.055419
3276.3300,0.055227
3278.1936,0.054941
3280.0573,0.054874
3281.9210,0.054634
3283.7846,0.054523
3285.6483,0.054420
3287.5120,0.054769
3289.3756,0.055021
3291.2393,0.055098
3293.1030,0.054754
3294.9666,0.054204
3296.8303,0.053612
3298.6940,0.053305
3300.5577,0.053310
3302.4213,0.053695
3304.2850,0.053646
3306.1487,0.053403
3308.0123,0.052959
3309.8760,0.052402
3311.7397,0.051718
3313.6033,0.051412
3315.4670,0.051400
3317.3307,0.051465
3319.1943,0.051094
3321.0580,0.051090
3322.9217,0.051250
3324.7854,0.050847
3326.6490,0.050359
3328.5127,0.050760
3330.3764,0.050755
3332.2400,0.050322
3334.1037,0.049988
3335.9674,0.049623
3337.8310,0.049363
3339.6947,0.049186
3341.5584,0.049089
3343.4220,0.049341
3345.2857,0.049204
3347.1494,0.048919
3349.0130,0.048770
3350.8767,0.048934
3352.7404,0.048670
3354.6041,0.048419
3356.4677,0.048180
3358.3314,0.047882
3360.1951,0.047958
3362.0587,0.047691
3363.9224,0.047115
3365.7861,0.047065
3367.6497,0.047298
3369.5134,0.047158
3371.3771,0.046733
3373.2407,0.046564
3375.1044,0.046322
3376.9681,0.046049
3378.8317,0.045486
3380.6954,0.045550
3382.5591,0.045803
3384.4228,0.045378
3386.2864,0.045428
3388.1501,0.045412
3390.0138,0.044163
3391.8774,0.043537
3393.7411,0.043400
3395.6048,0.043705
3397.4684,0.043759
3399.3321,0.043443
3401.1958,0.043229
3403.0594,0.043265
3404.9231,0.043387
3406.7868,0.043148
3408.6505,0.042856
3410.5141,0.042793
3412.3778,0.042505
3414.2415,0.041682
3416.1051,0.041161
3417.9688,0.041545
3419.8325,0.041286
3421.6961,0.040455
3423.5598,0.039726
3425.4235,0.039278
3427.2871,0.039097
3429.1508,0.038801
3431.0145,0.038469
3432.8781,0.038714
3434.7418,0.038991
3436.6055,0.038927
3438.4692,0.038009
3440.3328,0.037349
3442.1965,0.037361
3444.0602,0.037148
3445.9238,0.036582
3447.7875,0.036369
3449.6512,0.036402
3451.5148,0.035849
3453.3785,0.034906
3455.2422,0.034870
3457.1058,0.035016
3458.9695,0.034184
3460.8332,0.033543
3462.6969,0.033993
3464.5605,0.033567
3466.4242,0.032370
3468.2879,0.032118
3470.1515,0.032365
3472.0152,0.032089
3473.8789,0.032069
3475.7425,0.031258
3477.6062,0.030521
3479.4699,0.030238
3481.3335,0.029463
3483.1972,0.028831
3485.0609,0.028784
3486.9245,0.028022
3488.7882,0.027304
3490.6519,0.027139
3492.5156,0.026846
3494.3792,0.026634
3496.2429,0.026496
3498.1066,0.026510
3499.9702,0.026331
3501.8339,0.025730
3503.6976,0.024923
3505.5612,0.024157
3507.4249,0.023716
3509.2886,0.023511
3511.1522,0.023275
3513.0159,0.022575
3514.8796,0.022000
3516.7432,0.021140
3518.6069,0.020511
3520.4706,0.020443
3522.3343,0.020366
3524.1979,0.020141
3526.0616,0.019742
3527.9253,0.019274
3529.7889,0.018951
3531.6526,0.018504
3533.5163,0.018109
3535.3799,0.017868
3537.2436,0.017187
3539.1073,0.016359
3540.9709,0.016189
3542.8346,0.016206
3544.6983,0.015804
3546.5620,0.014944
3548.4256,0.014468
3550.2893,0.013681
3552.1530,0.013337
3554.0166,0.013669
3555.8803,0.013326
3557.7440,0.012629
3559.6076,0.011917
3561.4713,0.011098
3563.3350,0.010467
3565.1986,0.010063
3567.0623,0.010021
3568.9260,0.010219
3570.7896,0.009933
3572.6533,0.009450
3574.5170,0.009035
3576.3807,0.008521
3578.2443,0.008156
3580.1080,0.007970
3581.9717,0.007565
3583.8353,0.007316
3585.6990,0.007198
3587.5627,0.006663
3589.4263,0.005962
3591.2900,0.005316
3593.1537,0.004814
3595.0173,0.004720
3596.8810,0.004379
3598.7447,0.003962
3600.6084,0.003804
3602.4720,0.003301
3604.3357,0.002906
3606.1994,0.002559
3608.0630,0.001902
3609.9267,0.002037
3611.7904,0.002035
3613.6540,0.000886
3615.5177,0.000157
3617.3814,-0.000045
3619.2450,-0.000332
3621.1087,-0.000293
3622.9724,-0.000375
3624.8360,-0.000537
3626.6997,-0.000747
3628.5634,-0.001610
3630.4271,-0.002089
3632.2907,-0.001852
3634.1544,-0.002384
3636.0181,-0.003047
3637.8817,-0.003353
3639.7454,-0.003315
3641.6091,-0.003320
3643.4727,-0.003501
3645.3364,-0.003731
3647.2001,-0.004605
3649.0637,-0.005762
3650.9274,-0.006180
3652.7911,-0.006014
3654.6547,-0.006082
3656.5184,-0.006768
3658.3821,-0.006846
3660.2458,-0.006419
3662.1094,-0.006395
3663.9731,-0.006867
3665.8368,-0.007005
3667.7004,-0.006818
3669.5641,-0.007448
3671.4278,-0.008038
3673.2914,-0.007743
3675.1551,-0.008047
3677.0188,-0.008025
3678.8824,-0.007849
3680.7461,-0.008348
3682.6098,-0.008320
3684.4735,-0.008154
3686.3371,-0.008603
3688.2008,-0.009073
3690.0645,-0.009236
3691.9281,-0.009121
3693.7918,-0.008801
3695.6555,-0.008898
3697.5191,-0.009144
3699.3828,-0.009054
3701.2465,-0.009089
3703.1101,-0.008755
3704.9738,-0.008711
3706.8375,-0.009164
3708.7011,-0.008997
3710.5648,-0.008855
3712.4285,-0.009261
3714.2922,-0.009244
3716.1558,-0.008773
3718.0195,-0.008601
3719.8832,-0.008864
3721.7468,-0.009097
3723.6105,-0.009169
3725.4742,-0.009294
3727.3378,-0.009251
3729.2015,-0.008708
3731.0652,-0.008760
3732.9288,-0.009781
3734.7925,-0.010223
3736.6562,-0.009750
3738.5199,-0.009358
3740.3835,-0.009444
3742.2472,-0.009304
3744.1109,-0.009387
3745.9745,-0.009735
3747.8382,-0.009499
3749.7019,-0.009583
3751.5655,-0.009850
3753.4292,-0.009721
3755.2929,-0.009287
3757.1565,-0.009060
3759.0202,-0.009009
3760.8839,-0.008931
3762.7475,-0.008856
3764.6112,-0.008953
3766.4749,-0.009053
3768.3386,-0.009034
3770.2022,-0.009320
3772.0659,-0.009583
3773.9296,-0.009362
3775.7932,-0.009241
3777.6569,-0.009435
3779.5206,-0.009584
3781.3842,-0.009406
3783.2479,-0.009199
3785.1116,-0.009265
3786.9752,-0.009295
3788.8389,-0.009491
3790.7026,-0.009473
3792.5662,-0.009185
3794.4299,-0.009399
3796.2936,-0.009724
3798.1573,-0.009441
3800.0209,-0.009126
3801.8846,-0.009345
3803.7483,-0.009321
3805.6119,-0.009443
3807.4756,-0.009840
3809.3393,-0.009415
3811.2029,-0.008979
3813.0666,-0.009049
3814.9303,-0.009263
3816.7939,-0.009501
3818.6576,-0.009257
3820.5213,-0.009486
3822.3850,-0.009960
3824.2486,-0.009275
3826.1123,-0.008776
3827.9760,-0.008930
3829.8396,-0.009244
3831.7033,-0.009737
3833.5670,-0.010021
3835.4306,-0.009590
3837.2943,-0.009301
3839.1580,-0.009495
3841.0216,-0.009692
3842.8853,-0.009842
3844.7490,-0.009805
3846.6126,-0.009343
3848.4763,-0.008989
3850.3400,-0.009269
3852.2037,-0.010026
3854.0673,-0.010379
3855.9310,-0.009768
3857.7947,-0.009289
3859.6583,-0.009277
3861.5220,-0.009399
3863.3857,-0.009536
3865.2493,-0.009457
3867.1130,-0.009272
3868.9767,-0.009180
3870.8403,-0.009643
3872.7040,-0.009608
3874.5677,-0.009369
3876.4314,-0.009533
3878.2950,-0.009519
3880.1587,-0.009706
3882.0224,-0.009637
3883.8860,-0.009410
3885.7497,-0.009527
3887.6134,-0.009377
3889.4770,-0.009093
3891.3407,-0.009233
3893.2044,-0.009272
3895.0680,-0.009053
3896.9317,-0.009089
3898.7954,-0.009024
3900.6590,-0.009167
3902.5227,-0.009674
3904.3864,-0.009753
3906.2501,-0.009488
3908.1137,-0.009203
3909.9774,-0.009171
3911.8411,-0.009093
3913.7047,-0.008803
3915.5684,-0.009017
3917.4321,-0.009451
3919.2957,-0.009351
3921.1594,-0.009111
3923.0231,-0.009059
3924.8867,-0.008776
3926.7504,-0.008764
3928.6141,-0.008942
3930.4777,-0.008986
3932.3414,-0.008982
3934.2051,-0.009201
3936.0688,-0.009196
3937.9324,-0.008933
3939.7961,-0.008862
3941.6598,-0.009115
3943.5234,-0.009413
3945.3871,-0.009409
3947.2508,-0.009366
3949.1144,-0.009227
3950.9781,-0.009017
3952.8418,-0.009154
3954.7054,-0.009251
3956.5691,-0.009140
3958.4328,-0.008984
3960.2965,-0.009139
3962.1601,-0.009312
3964.0238,-0.009029
3965.8875,-0.008675
3967.7511,-0.008680
3969.6148,-0.008728
3971.4785,-0.008773
3973.3421,-0.008864
3975.2058,-0.009074
3977.0695,-0.009056
3978.9331,-0.008971
3980.7968,-0.009072
3982.6605,-0.009218
3984.5241,-0.009061
3986.3878,-0.008751
3988.2515,-0.008529
3990.1152,-0.008582
3991.9788,-0.008673
3993.8425,-0.008633
3995.7062,-0.008873
3997.5698,-0.009049
3999.4335,-0.009302
