Wavenumber,Intensity
650.4205,0.051661
652.2841,0.049948
654.1478,0.051178
656.0115,0.050462
657.8751,0.050122
659.7388,0.051317
661.6025,0.052679
663.4661,0.050996
665.3298,0.049816
667.1935,0.049695
669.0571,0.050842
670.9208,0.049852
672.7845,0.049581
674.6481,0.049074
676.5118,0.048948
678.3755,0.048222
680.2392,0.048023
682.1028,0.046411
683.9665,0.046233
685.8302,0.046911
687.6938,0.047121
689.5575,0.046684
691.4212,0.045493
693.2848,0.044547
695.1485,0.044979
697.0122,0.044485
698.8758,0.044644
700.7395,0.044577
702.6032,0.044512
704.4669,0.043168
706.3305,0.042513
708.1942,0.041831
710.0579,0.040911
711.9215,0.040144
713.7852,0.039204
715.6489,0.038921
717.5125,0.039174
719.3762,0.038435
721.2399,0.037429
723.1035,0.036659
724.9672,0.036786
726.8309,0.036494
728.6945,0.035845
730.5582,0.035713
732.4219,0.035454
734.2856,0.034623
736.1492,0.034708
738.0129,0.035082
739.8766,0.035137
741.7402,0.034871
743.6039,0.035198
745.4676,0.035173
747.3312,0.034574
749.1949,0.033874
751.0586,0.033869
752.9222,0.033649
754.7859,0.033107
756.6496,0.033432
758.5132,0.033648
760.3769,0.033513
762.2406,0.033675
764.1043,0.033616
765.9679,0.033458
767.8316,0.033517
769.6953,0.033589
771.5589,0.033545
773.4226,0.033366
775.2863,0.033027
777.1499,0.032535
779.0136,0.032218
780.8773,0.031737
782.7409,0.031550
784.6046,0.031256
786.4683,0.030841
788.3320,0.030639
790.1956,0.030513
792.0593,0.030069
793.9230,0.029664
795.7866,0.029655
797.6503,0.029771
799.5140,0.029780
801.3776,0.029865
803.2413,0.030342
805.1050,0.030377
806.9686,0.030120
808.8323,0.029975
810.6960,0.029863
812.5596,0.029653
814.4233,0.029511
816.2870,0.029225
818.1507,0.028709
820.0143,0.028252
821.8780,0.027903
823.7417,0.027619
825.6053,0.027483
827.4690,0.027357
829.3327,0.027518
831.1963,0.027499
833.0600,0.027265
834.9237,0.027104
836.7873,0.026707
838.6510,0.026337
840.5147,0.026449
842.3784,0.026617
844.2420,0.026464
846.1057,0.026605
847.9694,0.026950
849.8330,0.026999
851.6967,0.026914
853.5604,0.026575
855.4240,0.026312
857.2877,0.026190
859.1514,0.026280
861.0150,0.026288
862.8787,0.026161
864.7424,0.025963
866.6060,0.025822
868.4697,0.025543
870.3334,0.025328
872.1971,0.024888
874.0607,0.024102
875.9244,0.023048
877.7881,0.022298
879.6517,0.022244
881.5154,0.022616
883.3791,0.023330
885.2427,0.024294
887.1064,0.025074
888.9701,0.025977
890.8337,0.026838
892.6974,0.027272
894.5611,0.027391
896.4247,0.027641
898.2884,0.028086
900.1521,0.028330
902.0158,0.028513
903.8794,0.028791
905.7431,0.029033
907.6068,0.029312
909.4704,0.029586
911.3341,0.029948
913.1978,0.030586
915.0614,0.031312
916.9251,0.031903
918.7888,0.032384
920.6524,0.032807
922.5161,0.033041
924.3798,0.033253
926.2435,0.033356
928.1071,0.033224
929.9708,0.033248
931.8345,0.033289
933.6981,0.033319
935.5618,0.033331
937.4255,0.033508
939.2891,0.033815
941.1528,0.034191
943.0165,0.034536
944.8801,0.034853
946.7438,0.034973
948.6075,0.035131
950.4711,0.035184
952.3348,0.035198
954.1985,0.035219
956.0622,0.035667
957.9258,0.036464
959.7895,0.037504
961.6532,0.038497
963.5168,0.039501
965.3805,0.040346
967.2442,0.040842
969.1078,0.041063
970.9715,0.041341
972.8352,0.041607
974.6988,0.041878
976.5625,0.042154
978.4262,0.042659
980.2899,0.043330
982.1535,0.044033
984.0172,0.044605
985.8809,0.045024
987.7445,0.045531
989.6082,0.046251
991.4719,0.046973
993.3355,0.047594
995.1992,0.048249
997.0629,0.049051
998.9265,0.049833
1000.7902,0.050474
1002.6539,0.051197
1004.5175,0.052185
1006.3812,0.053409
1008.2449,0.054794
1010.1086,0.056127
1011.9722,0.057553
1013.8359,0.058961
1015.6996,0.060216
1017.5632,0.061305
1019.4269,0.062066
1021.2906,0.062430
1023.1542,0.062526
1025.0179,0.062586
1026.8816,0.062575
1028.7452,0.062165
1030.6089,0.061499
1032.4726,0.060537
1034.3362,0.059123
1036.1999,0.057207
1038.0636,0.054808
1039.9273,0.051996
1041.7909,0.049117
1043.6546,0.046802
1045.5183,0.045693
1047.3819,0.045983
1049.2456,0.047432
1051.1093,0.049622
1052.9729,0.052210
1054.8366,0.054501
1056.7003,0.056379
1058.5639,0.057789
1060.4276,0.058680
1062.2913,0.059197
1064.1550,0.059575
1066.0186,0.059754
1067.8823,0.059713
1069.7460,0.059412
1071.6096,0.058910
1073.4733,0.057960
1075.3370,0.056714
1077.2006,0.055110
1079.0643,0.053288
1080.9280,0.051361
1082.7916,0.049317
1084.6553,0.047404
1086.5190,0.045929
1088.3826,0.044870
1090.2463,0.044451
1092.1100,0.044452
1093.9737,0.044555
1095.8373,0.044783
1097.7010,0.045120
1099.5647,0.045479
1101.4283,0.045842
1103.2920,0.046197
1105.1557,0.046517
1107.0193,0.046823
1108.8830,0.047069
1110.7467,0.047242
1112.6103,0.047424
1114.4740,0.047575
1116.3377,0.047642
1118.2014,0.047531
1120.0650,0.047259
1121.9287,0.046932
1123.7924,0.046621
1125.6560,0.046176
1127.5197,0.045567
1129.3834,0.044835
1131.2470,0.044086
1133.1107,0.043346
1134.9744,0.042621
1136.8380,0.042012
1138.7017,0.041586
1140.5654,0.041180
1142.4290,0.040890
1144.2927,0.040715
1146.1564,0.040624
1148.0201,0.040666
1149.8837,0.040848
1151.7474,0.040991
1153.6111,0.040983
1155.4747,0.040861
1157.3384,0.040739
1159.2021,0.040564
1161.0657,0.040226
1162.9294,0.039738
1164.7931,0.039223
1166.6567,0.038664
1168.5204,0.037986
1170.3841,0.037213
1172.2477,0.036424
1174.1114,0.035700
1175.9751,0.035063
1177.8388,0.034560
1179.7024,0.034406
1181.5661,0.034512
1183.4298,0.034729
1185.2934,0.035111
1187.1571,0.035624
1189.0208,0.036076
1190.8844,0.036539
1192.7481,0.037120
1194.6118,0.037743
1196.4754,0.038356
1198.3391,0.039017
1200.2028,0.039711
1202.0665,0.040402
1203.9301,0.040968
1205.7938,0.041355
1207.6575,0.041613
1209.5211,0.041844
1211.3848,0.042063
1213.2485,0.042410
1215.1121,0.042864
1216.9758,0.043306
1218.8395,0.043896
1220.7031,0.044607
1222.5668,0.045310
1224.4305,0.046049
1226.2941,0.046747
1228.1578,0.047392
1230.0215,0.047955
1231.8852,0.048444
1233.7488,0.048746
1235.6125,0.048993
1237.4762,0.049099
1239.3398,0.049070
1241.2035,0.048920
1243.0672,0.048686
1244.9308,0.048347
1246.7945,0.047955
1248.6582,0.047457
1250.5218,0.046895
1252.3855,0.046366
1254.2492,0.045867
1256.1129,0.045383
1257.9765,0.044961
1259.8402,0.044719
1261.7039,0.044550
1263.5675,0.044179
1265.4312,0.043798
1267.2949,0.043506
1269.1585,0.043255
1271.0222,0.042975
1272.8859,0.042785
1274.7495,0.042664
1276.6132,0.042602
1278.4769,0.042538
1280.3405,0.042519
1282.2042,0.042452
1284.0679,0.042410
1285.9316,0.042371
1287.7952,0.042541
1289.6589,0.042741
1291.5226,0.042800
1293.3862,0.042908
1295.2499,0.043115
1297.1136,0.043407
1298.9772,0.043845
1300.8409,0.044298
1302.7046,0.044707
1304.5682,0.045044
1306.4319,0.045311
1308.2956,0.045484
1310.1592,0.045673
1312.0229,0.045860
1313.8866,0.046044
1315.7503,0.045905
1317.6139,0.045763
1319.4776,0.045776
1321.3413,0.045640
1323.2049,0.045393
1325.0686,0.045281
1326.9323,0.045173
1328.7959,0.045147
1330.6596,0.045267
1332.5233,0.045507
1334.3869,0.045422
1336.2506,0.045392
1338.1143,0.046089
1339.9780,0.047219
1341.8416,0.047437
1343.7053,0.047105
1345.5690,0.046832
1347.4326,0.046597
1349.2963,0.046491
1351.1600,0.046368
1353.0236,0.046162
1354.8873,0.046120
1356.7510,0.045899
1358.6146,0.045553
1360.4783,0.045918
1362.3420,0.047591
1364.2056,0.048809
1366.0693,0.048889
1367.9330,0.049473
1369.7967,0.050078
1371.6603,0.049998
1373.5240,0.050968
1375.3877,0.052251
1377.2513,0.052194
1379.1150,0.052130
1380.9787,0.052198
1382.8423,0.052171
1384.7060,0.052032
1386.5697,0.053063
1388.4333,0.054427
1390.2970,0.053948
1392.1607,0.053227
1394.0244,0.054002
1395.8880,0.055378
1397.7517,0.055671
1399.6154,0.055989
1401.4790,0.055120
1403.3427,0.054493
1405.2064,0.054915
1407.0700,0.054514
1408.9337,0.053537
1410.7974,0.053053
1412.6610,0.052276
1414.5247,0.050906
1416.3884,0.049807
1418.2520,0.050812
1420.1157,0.052238
1421.9794,0.051012
1423.8431,0.050616
1425.7067,0.050675
1427.5704,0.050337
1429.4341,0.051136
1431.2977,0.051870
1433.1614,0.051561
1435.0251,0.052249
1436.8887,0.055664
1438.7524,0.056357
1440.6161,0.055155
1442.4797,0.054853
1444.3434,0.054544
1446.2071,0.054359
1448.0707,0.054840
1449.9344,0.054306
1451.7981,0.052682
1453.6618,0.050535
1455.5254,0.049730
1457.3891,0.052868
1459.2528,0.052833
1461.1164,0.049841
1462.9801,0.048097
1464.8438,0.048518
1466.7074,0.047906
1468.5711,0.045754
1470.4348,0.044179
1472.2984,0.045116
1474.1621,0.046022
1476.0258,0.045314
1477.8895,0.044333
1479.7531,0.043586
1481.6168,0.043723
1483.4805,0.043378
1485.3441,0.043114
1487.2078,0.044497
1489.0715,0.047646
1490.9351,0.050377
1492.7988,0.049818
1494.6625,0.049817
1496.5261,0.053500
1498.3898,0.057224
1500.2535,0.057848
1502.1171,0.056688
1503.9808,0.055604
1505.8445,0.059982
1507.7082,0.070238
1509.5718,0.070195
1511.4355,0.068738
1513.2992,0.068557
1515.1628,0.068763
1517.0265,0.070272
1518.8902,0.070207
1520.7538,0.071347
1522.6175,0.074386
1524.4812,0.074012
1526.3448,0.074532
1528.2085,0.074867
1530.0722,0.073587
1531.9359,0.072908
1533.7995,0.074759
1535.6632,0.073511
1537.5269,0.070401
1539.3905,0.071303
1541.2542,0.075747
1543.1179,0.075584
1544.9815,0.074700
1546.8452,0.072759
1548.7089,0.070672
1550.5725,0.069407
1552.4362,0.067500
1554.2999,0.065361
1556.1635,0.062996
1558.0272,0.063447
1559.8909,0.068417
1561.7546,0.065523
1563.6182,0.062119
1565.4819,0.060510
1567.3456,0.059183
1569.2092,0.059023
1571.0729,0.058604
1572.9366,0.056204
1574.8002,0.055511
1576.6639,0.057576
1578.5276,0.057232
1580.3912,0.055501
1582.2549,0.054847
1584.1186,0.054647
1585.9822,0.054477
1587.8459,0.054313
1589.7096,0.054463
1591.5733,0.054790
1593.4369,0.055243
1595.3006,0.055698
1597.1643,0.056088
1599.0279,0.056315
1600.8916,0.057038
1602.7553,0.058098
1604.6189,0.059142
1606.4826,0.060099
1608.3463,0.061578
1610.2099,0.062846
1612.0736,0.063401
1613.9373,0.063432
1615.8010,0.065171
1617.6646,0.068706
1619.5283,0.068709
1621.3920,0.067931
1623.2556,0.069621
1625.1193,0.070888
1626.9830,0.070809
1628.8466,0.070834
1630.7103,0.069770
1632.5740,0.067607
1634.4376,0.066807
1636.3013,0.068728
1638.1650,0.068157
1640.0286,0.065734
1641.8923,0.063370
1643.7560,0.060604
1645.6197,0.058886
1647.4833,0.059042
1649.3470,0.057263
1651.2107,0.054047
1653.0743,0.054533
1654.9380,0.055945
1656.8017,0.053439
1658.6653,0.050719
1660.5290,0.048484
1662.3927,0.047197
1664.2563,0.045936
1666.1200,0.043430
1667.9837,0.041243
1669.8474,0.040163
1671.7110,0.039274
1673.5747,0.037582
1675.4384,0.036192
1677.3020,0.034484
1679.1657,0.032253
1681.0294,0.029909
1682.8930,0.028108
1684.7567,0.027481
1686.6204,0.025955
1688.4840,0.023799
1690.3477,0.021919
1692.2114,0.019643
1694.0750,0.017188
1695.9387,0.014961
1697.8024,0.013102
1699.6661,0.011230
1701.5297,0.009929
1703.3934,0.008943
1705.2571,0.007929
1707.1207,0.007027
1708.9844,0.006407
1710.8481,0.005877
1712.7117,0.005494
1714.5754,0.004854
1716.4391,0.004151
1718.3027,0.003845
1720.1664,0.003860
1722.0301,0.003588
1723.8937,0.003198
1725.7574,0.002879
1727.6211,0.002700
1729.4848,0.002418
1731.3484,0.002055
1733.2121,0.001289
1735.0758,0.000937
1736.9394,0.001137
1738.8031,0.000923
1740.6668,0.000616
1742.5304,0.000421
1744.3941,0.000142
1746.2578,0.000165
1748.1214,0.000111
1749.9851,-0.000179
1751.8488,-0.000461
1753.7125,-0.000526
1755.5761,-0.000602
1757.4398,-0.000649
1759.3035,-0.000698
1761.1671,-0.000735
1763.0308,-0.000850
1764.8945,-0.000815
1766.7581,-0.000915
1768.6218,-0.000822
1770.4855,-0.000847
1772.3491,-0.001308
1774.2128,-0.001410
1776.0765,-0.001201
1777.9401,-0.001097
1779.8038,-0.001052
1781.6675,-0.001074
1783.5312,-0.001131
1785.3948,-0.001247
1787.2585,-0.001132
1789.1222,-0.001167
1790.9858,-0.001446
1792.8495,-0.001721
1794.7132,-0.001516
1796.5768,-0.001306
1798.4405,-0.001415
1800.3042,-0.001601
1802.1678,-0.001584
1804.0315,-0.001589
1805.8952,-0.001390
1807.7589,-0.001222
1809.6225,-0.001306
1811.4862,-0.001657
1813.3499,-0.001551
1815.2135,-0.001418
1817.0772,-0.001395
1818.9409,-0.001474
1820.8045,-0.001329
1822.6682,-0.001261
1824.5319,-0.001541
1826.3955,-0.001644
1828.2592,-0.001550
1830.1229,-0.001799
1831.9865,-0.001780
1833.8502,-0.001582
1835.7139,-0.001423
1837.5776,-0.001535
1839.4412,-0.001550
1841.3049,-0.001592
1843.1686,-0.001704
1845.0322,-0.001926
1846.8959,-0.001801
1848.7596,-0.001719
1850.6232,-0.001692
1852.4869,-0.001573
1854.3506,-0.001279
1856.2142,-0.001192
1858.0779,-0.001504
1859.9416,-0.001837
1861.8052,-0.001875
1863.6689,-0.001631
1865.5326,-0.001280
1867.3963,-0.001353
1869.2599,-0.001284
1871.1236,-0.001304
1872.9873,-0.001317
1874.8509,-0.001263
1876.7146,-0.001188
1878.5783,-0.001286
1880.4419,-0.001358
1882.3056,-0.001527
1884.1693,-0.001736
1886.0329,-0.001820
1887.8966,-0.001937
1889.7603,-0.001966
1891.6240,-0.001253
1893.4876,-0.001056
1895.3513,-0.001411
1897.2150,-0.001719
1899.0786,-0.001641
1900.9423,-0.001651
1902.8060,-0.001738
1904.6696,-0.001865
1906.5333,-0.001671
1908.3970,-0.001723
1910.2606,-0.001924
1912.1243,-0.001804
1913.9880,-0.001473
1915.8516,-0.001400
1917.7153,-0.001439
1919.5790,-0.001812
1921.4427,-0.001864
1923.3063,-0.001579
1925.1700,-0.001787
1927.0337,-0.002312
1928.8973,-0.002082
1930.7610,-0.002118
1932.6247,-0.002625
1934.4883,-0.002883
1936.3520,-0.002558
1938.2157,-0.002359
1940.0793,-0.002351
1941.9430,-0.002307
1943.8067,-0.001746
1945.6704,-0.001967
1947.5340,-0.002583
1949.3977,-0.002461
1951.2614,-0.002154
1953.1250,-0.002800
1954.9887,-0.003372
1956.8524,-0.002812
1958.7160,-0.002559
1960.5797,-0.003511
1962.4434,-0.004125
1964.3070,-0.004704
1966.1707,-0.003990
1968.0344,-0.002993
1969.8980,-0.002705
1971.7617,-0.003833
1973.6254,-0.004465
1975.4891,-0.003704
1977.3527,-0.001804
1979.2164,-0.000544
1981.0801,-0.001260
1982.9437,-0.003084
1984.8074,-0.003751
1986.6711,-0.003888
1988.5347,-0.003031
1990.3984,-0.002186
1992.2621,-0.002155
1994.1257,-0.002996
1995.9894,-0.003741
1997.8531,-0.003236
1999.7167,-0.002472
2001.5804,-0.002846
2003.4441,-0.002845
2005.3078,-0.003463
2007.1714,-0.004237
2009.0351,-0.003642
2010.8988,-0.002551
2012.7624,-0.003530
2014.6261,-0.005371
2016.4898,-0.006498
2018.3534,-0.004678
2020.2171,-0.001906
2022.0808,-0.000787
2023.9444,-0.001552
2025.8081,-0.003066
2027.6718,-0.003930
2029.5355,-0.004168
2031.3991,-0.004375
2033.2628,-0.003393
2035.1265,-0.003582
2036.9901,-0.003249
2038.8538,-0.002295
2040.7175,-0.002738
2042.5811,-0.003037
2044.4448,-0.002578
2046.3085,-0.002862
2048.1721,-0.003074
2050.0358,-0.002653
2051.8995,-0.001774
2053.7631,-0.001129
2055.6268,-0.000024
2057.4905,-0.000312
2059.3542,-0.000982
2061.2178,-0.001387
2063.0815,-0.001398
2064.9452,-0.000770
2066.8088,-0.000283
2068.6725,-0.000462
2070.5362,-0.000682
2072.3998,-0.001353
2074.2635,-0.001556
2076.1272,-0.001048
2077.9908,-0.001025
2079.8545,-0.001441
2081.7182,-0.000947
2083.5819,-0.000370
2085.4455,-0.000404
2087.3092,-0.001033
2089.1729,-0.001267
2091.0365,-0.001003
2092.9002,-0.000621
2094.7639,-0.000617
2096.6275,-0.000929
2098.4912,-0.001068
2100.3549,-0.000962
2102.2185,-0.001024
2104.0822,-0.000330
2105.9459,0.000064
2107.8095,-0.000320
2109.6732,-0.000534
2111.5369,-0.000457
2113.4006,-0.000279
2115.2642,-0.000410
2117.1279,-0.000869
2118.9916,-0.001277
2120.8552,-0.001389
2122.7189,-0.001043
2124.5826,-0.001058
2126.4462,-0.001680
2128.3099,-0.002659
2130.1736,-0.002871
2132.0372,-0.002774
2133.9009,-0.002558
2135.7646,-0.002771
2137.6282,-0.003352
2139.4919,-0.003397
2141.3556,-0.003805
2143.2193,-0.003566
2145.0829,-0.002609
2146.9466,-0.002256
2148.8103,-0.002577
2150.6739,-0.003694
2152.5376,-0.003744
2154.4013,-0.003588
2156.2649,-0.003964
2158.1286,-0.002868
2159.9923,-0.001116
2161.8559,-0.001764
2163.7196,-0.002248
2165.5833,-0.002834
2167.4470,-0.003085
2169.3106,-0.002546
2171.1743,-0.001251
2173.0380,-0.000661
2174.9016,-0.001174
2176.7653,-0.001928
2178.6290,-0.002617
2180.4926,-0.003162
2182.3563,-0.002483
2184.2200,-0.002684
2186.0836,-0.002742
2187.9473,-0.001194
2189.8110,-0.000281
2191.6746,-0.000868
2193.5383,-0.001083
2195.4020,-0.001482
2197.2657,-0.001588
2199.1293,-0.001315
2200.9930,-0.000701
2202.8567,-0.001251
2204.7203,-0.002059
2206.5840,-0.002180
2208.4477,-0.001571
2210.3113,-0.000807
2212.1750,-0.001008
2214.0387,-0.001261
2215.9023,-0.001152
2217.7660,-0.001434
2219.6297,-0.001025
2221.4934,-0.000838
2223.3570,-0.000874
2225.2207,-0.000576
2227.0844,-0.000605
2228.9480,-0.000780
2230.8117,-0.000362
2232.6754,-0.000030
2234.5390,-0.000031
2236.4027,-0.000234
2238.2664,-0.000106
2240.1300,0.000149
2241.9937,0.000264
2243.8574,0.000049
2245.7210,0.000207
2247.5847,0.000250
2249.4484,0.000160
2251.3121,0.000075
2253.1757,0.000040
2255.0394,-0.000080
2256.9031,0.000215
2258.7667,-0.000017
2260.6304,-0.000224
2262.4941,0.000187
2264.3577,0.000205
2266.2214,0.000078
2268.0851,0.000672
2269.9487,0.001172
2271.8124,0.001104
2273.6761,0.000727
2275.5397,0.000841
2277.4034,0.001202
2279.2671,0.001384
2281.1308,0.001150
2282.9944,0.000962
2284.8581,0.001184
2286.7218,0.001522
2288.5854,0.001410
2290.4491,0.001300
2292.3128,0.001172
2294.1764,0.001113
2296.0401,0.001265
2297.9038,0.001329
2299.7674,0.001456
2301.6311,0.001486
2303.4948,0.001322
2305.3585,0.001324
2307.2221,0.001469
2309.0858,0.001579
2310.9495,0.001452
2312.8131,0.001423
2314.6768,0.001253
2316.5405,0.001073
2318.4041,0.001268
2320.2678,0.001722
2322.1315,0.001925
2323.9951,0.002086
2325.8588,0.001822
2327.7225,0.001014
2329.5861,0.000274
2331.4498,0.000002
2333.3135,0.000387
2335.1772,0.000951
2337.0408,0.000963
2338.9045,0.000732
2340.7682,0.000897
2342.6318,0.001202
2344.4955,0.000852
2346.3592,0.000880
2348.2228,0.001439
2350.0865,0.001462
2351.9502,0.000713
2353.8138,0.000199
2355.6775,-0.000007
2357.5412,-0.000551
2359.4049,-0.000552
2361.2685,-0.000156
2363.1322,-0.000074
2364.9959,0.000404
2366.8595,0.001066
2368.7232,0.001170
2370.5869,0.001747
2372.4505,0.002306
2374.3142,0.002288
2376.1779,0.002464
2378.0415,0.002382
2379.9052,0.002296
2381.7689,0.002345
2383.6325,0.002130
2385.4962,0.001911
2387.3599,0.002112
2389.2236,0.002327
2391.0872,0.002430
2392.9509,0.002208
2394.8146,0.001836
2396.6782,0.002001
2398.5419,0.002466
2400.4056,0.002587
2402.2692,0.002403
2404.1329,0.002529
2405.9966,0.002709
2407.8602,0.002703
2409.7239,0.002867
2411.5876,0.002825
2413.4512,0.002894
2415.3149,0.003004
2417.1786,0.002835
2419.0423,0.002938
2420.9059,0.003107
2422.7696,0.002842
2424.6333,0.002852
2426.4969,0.003270
2428.3606,0.003276
2430.2243,0.003299
2432.0879,0.003378
2433.9516,0.003151
2435.8153,0.003317
2437.6789,0.003532
2439.5426,0.003514
2441.4063,0.003579
2443.2700,0.003592
2445.1336,0.003496
2446.9973,0.003768
2448.8610,0.003758
2450.7246,0.003678
2452.5883,0.003884
2454.4520,0.003726
2456.3156,0.003687
2458.1793,0.004003
2460.0430,0.004095
2461.9066,0.004053
2463.7703,0.003941
2465.6340,0.004165
2467.4976,0.004270
2469.3613,0.003983
2471.2250,0.003827
2473.0887,0.003876
2474.9523,0.003995
2476.8160,0.004222
2478.6797,0.004188
2480.5433,0.004141
2482.4070,0.004242
2484.2707,0.004173
2486.1343,0.004165
2487.9980,0.004436
2489.8617,0.004707
2491.7253,0.004840
2493.5890,0.004737
2495.4527,0.004746
2497.3164,0.004994
2499.1800,0.005022
2501.0437,0.004758
2502.9074,0.004616
2504.7710,0.004807
2506.6347,0.004927
2508.4984,0.004916
2510.3620,0.004977
2512.2257,0.004834
2514.0894,0.004798
2515.9530,0.005092
2517.8167,0.005437
2519.6804,0.005542
2521.5440,0.005491
2523.4077,0.005586
2525.2714,0.005748
2527.1351,0.005876
2528.9987,0.005818
2530.8624,0.005686
2532.7261,0.005943
2534.5897,0.006126
2536.4534,0.005924
2538.3171,0.005631
2540.1807,0.005544
2542.0444,0.005564
2543.9081,0.005888
2545.7717,0.006171
2547.6354,0.006304
2549.4991,0.006579
2551.3627,0.006753
2553.2264,0.006548
2555.0901,0.006500
2556.9538,0.006722
2558.8174,0.006792
2560.6811,0.006784
2562.5448,0.006786
2564.4084,0.006623
2566.2721,0.006726
2568.1358,0.007169
2569.9994,0.007613
2571.8631,0.007646
2573.7268,0.007240
2575.5904,0.007329
2577.4541,0.007812
2579.3178,0.007646
2581.1815,0.007332
2583.0451,0.007656
2584.9088,0.008196
2586.7725,0.008374
2588.6361,0.008207
2590.4998,0.008011
2592.3635,0.007986
2594.2271,0.008132
2596.0908,0.008299
2597.9545,0.008426
2599.8181,0.008486
2601.6818,0.008535
2603.5455,0.008687
2605.4091,0.008881
2607.2728,0.008983
2609.1365,0.008916
2611.0002,0.009097
2612.8638,0.009164
2614.7275,0.009031
2616.5912,0.009275
2618.4548,0.009732
2620.3185,0.009813
2622.1822,0.009510
2624.0458,0.009428
2625.9095,0.009701
2627.7732,0.009886
2629.6368,0.009779
2631.5005,0.009790
2633.3642,0.010140
2635.2279,0.010413
2637.0915,0.010429
2638.9552,0.010330
2640.8189,0.010256
2642.6825,0.010406
2644.5462,0.010722
2646.4099,0.010843
2648.2735,0.010898
2650.1372,0.011069
2652.0009,0.011129
2653.8645,0.011014
2655.7282,0.010899
2657.5919,0.010898
2659.4555,0.010999
2661.3192,0.011048
2663.1829,0.011061
2665.0466,0.011091
2666.9102,0.011083
2668.7739,0.011122
2670.6376,0.011244
2672.5012,0.011268
2674.3649,0.011250
2676.2286,0.011416
2678.0922,0.011569
2679.9559,0.011637
2681.8196,0.011793
2683.6832,0.011936
2685.5469,0.012009
2687.4106,0.012067
2689.2742,0.012009
2691.1379,0.011905
2693.0016,0.012126
2694.8653,0.012424
2696.7289,0.012451
2698.5926,0.012547
2700.4563,0.012718
2702.3199,0.012656
2704.1836,0.012531
2706.0473,0.012528
2707.9109,0.012693
2709.7746,0.012800
2711.6383,0.012876
2713.5019,0.013099
2715.3656,0.013205
2717.2293,0.013195
2719.0930,0.013212
2720.9566,0.013257
2722.8203,0.013468
2724.6840,0.013836
2726.5476,0.013991
2728.4113,0.013919
2730.2750,0.013934
2732.1386,0.013968
2734.0023,0.013972
2735.8660,0.014066
2737.7296,0.014230
2739.5933,0.014269
2741.4570,0.014252
2743.3206,0.014384
2745.1843,0.014548
2747.0480,0.014667
2748.9117,0.014865
2750.7753,0.015029
2752.6390,0.015155
2754.5027,0.015325
2756.3663,0.015382
2758.2300,0.015428
2760.0937,0.015553
2761.9573,0.015779
2763.8210,0.015919
2765.6847,0.015864
2767.5483,0.015890
2769.4120,0.016131
2771.2757,0.016295
2773.1394,0.016274
2775.0030,0.016284
2776.8667,0.016309
2778.7304,0.016408
2780.5940,0.016658
2782.4577,0.016982
2784.3214,0.017227
2786.1850,0.017272
2788.0487,0.017272
2789.9124,0.017236
2791.7760,0.017152
2793.6397,0.017264
2795.5034,0.017599
2797.3670,0.017794
2799.2307,0.017707
2801.0944,0.017584
2802.9581,0.017717
2804.8217,0.017748
2806.6854,0.017760
2808.5491,0.018078
2810.4127,0.018282
2812.2764,0.018346
2814.1401,0.018306
2816.0037,0.018251
2817.8674,0.018567
2819.7311,0.018765
2821.5947,0.018620
2823.4584,0.018672
2825.3221,0.018902
2827.1857,0.018995
2829.0494,0.019022
2830.9131,0.019027
2832.7768,0.019114
2834.6404,0.019164
2836.5041,0.019205
2838.3678,0.019456
2840.2314,0.019724
2842.0951,0.019828
2843.9588,0.019929
2845.8224,0.020132
2847.6861,0.020486
2849.5498,0.020913
2851.4134,0.021144
2853.2771,0.021307
2855.1408,0.021326
2857.0045,0.021131
2858.8681,0.021308
2860.7318,0.021730
2862.5955,0.021777
2864.4591,0.021778
2866.3228,0.022199
2868.1865,0.022608
2870.0501,0.022833
2871.9138,0.022988
2873.7775,0.022927
2875.6411,0.022585
2877.5048,0.022223
2879.3685,0.022044
2881.2321,0.021976
2883.0958,0.021905
2884.9595,0.021797
2886.8232,0.021535
2888.6868,0.021335
2890.5505,0.021313
2892.4142,0.021275
2894.2778,0.021099
2896.1415,0.021026
2898.0052,0.021322
2899.8688,0.021639
2901.7325,0.021838
2903.5962,0.022074
2905.4598,0.022284
2907.3235,0.022597
2909.1872,0.022879
2911.0509,0.023224
2912.9145,0.023740
2914.7782,0.024136
2916.6419,0.024251
2918.5055,0.024393
2920.3692,0.024789
2922.2329,0.025020
2924.0965,0.024725
2925.9602,0.024710
2927.8239,0.025060
2929.6875,0.025189
2931.5512,0.025143
2933.4149,0.025016
2935.2785,0.024916
2937.1422,0.025162
2939.0059,0.025379
2940.8696,0.025152
2942.7332,0.024693
2944.5969,0.024544
2946.4606,0.024702
2948.3242,0.024742
2950.1879,0.024709
2952.0516,0.024910
2953.9152,0.024855
2955.7789,0.024567
2957.6426,0.024466
2959.5062,0.024414
2961.3699,0.024168
2963.2336,0.023679
2965.0972,0.023103
2966.9609,0.022524
2968.8246,0.021712
2970.6883,0.020793
2972.5519,0.019950
2974.4156,0.019125
2976.2793,0.018528
2978.1429,0.018174
2980.0066,0.017749
2981.8703,0.017731
2983.7339,0.018168
2985.5976,0.018309
2987.4613,0.018620
2989.3249,0.019401
2991.1886,0.019912
2993.0523,0.020265
2994.9160,0.020527
2996.7796,0.020620
2998.6433,0.020833
3000.5070,0.021107
3002.3706,0.021334
3004.2343,0.021449
3006.0980,0.021447
3007.9616,0.021752
3009.8253,0.022068
3011.6890,0.022219
3013.5526,0.022377
3015.4163,0.022458
3017.2800,0.022366
3019.1436,0.022260
3021.0073,0.022353
3022.8710,0.022624
3024.7347,0.022687
3026.5983,0.022733
3028.4620,0.022893
3030.3257,0.023115
3032.1893,0.023305
3034.0530,0.023397
3035.9167,0.023415
3037.7803,0.023549
3039.6440,0.023584
3041.5077,0.023491
3043.3713,0.023592
3045.2350,0.023676
3047.0987,0.023677
3048.9624,0.023776
3050.8260,0.023923
3052.6897,0.024037
3054.5534,0.023752
3056.4170,0.023708
3058.2807,0.023805
3060.1444,0.023320
3062.0080,0.022986
3063.8717,0.023064
3065.7354,0.022928
3067.5990,0.022786
3069.4627,0.022806
3071.3264,0.022763
3073.1900,0.022442
3075.0537,0.022204
3076.9174,0.022177
3078.7811,0.021956
3080.6447,0.021739
3082.5084,0.021702
3084.3721,0.021280
3086.2357,0.020779
3088.0994,0.020374
3089.9631,0.020080
3091.8267,0.020087
3093.6904,0.019850
3095.5541,0.019220
3097.4177,0.018835
3099.2814,0.018776
3101.1451,0.018886
3103.0087,0.018735
3104.8724,0.018389
3106.7361,0.018055
3108.5998,0.017899
3110.4634,0.017801
3112.3271,0.017460
3114.1908,0.017071
3116.0544,0.017076
3117.9181,0.017272
3119.7818,0.017416
3121.6454,0.017157
3123.5091,0.016745
3125.3728,0.016667
3127.2364,0.016495
3129.1001,0.016230
3130.9638,0.016044
3132.8275,0.015910
3134.6911,0.015977
3136.5548,0.015830
3138.4185,0.015770
3140.2821,0.016060
3142.1458,0.015907
3144.0095,0.015461
3145.8731,0.015587
3147.7368,0.015683
3149.6005,0.015643
3151.4641,0.015495
3153.3278,0.015172
3155.1915,0.015057
3157.0551,0.015188
3158.9188,0.014936
3160.7825,0.014485
3162.6462,0.014602
3164.5098,0.014814
3166.3735,0.014476
3168.2372,0.014332
3170.1008,0.014409
3171.9645,0.014446
3173.8282,0.014374
3175.6918,0.014201
3177.5555,0.013957
3179.4192,0.014026
3181.2828,0.014001
3183.1465,0.013669
3185.0102,0.013400
3186.8739,0.013297
3188.7375,0.013144
3190.6012,0.012913
3192.4649,0.013009
3194.3285,0.013105
3196.1922,0.012583
3198.0559,0.012514
3199.9195,0.012518
3201.7832,0.012002
3203.6469,0.011733
3205.5105,0.011536
3207.3742,0.011008
3209.2379,0.010772
3211.1015,0.010850
3212.9652,0.011067
3214.8289,0.011042
3216.6926,0.010635
3218.5562,0.010216
3220.4199,0.010137
3222.2836,0.010096
3224.1472,0.009917
3226.0109,0.009866
3227.8746,0.009630
3229.7382,0.009121
3231.6019,0.009062
3233.4656,0.009391
3235.3292,0.009450
3237.1929,0.009067
3239.0566,0.008725
3240.9202,0.008644
3242.7839,0.008906
3244.6476,0.008940
3246.5113,0.008771
3248.3749,0.008974
3250.2386,0.009206
3252.1023,0.008917
3253.9659,0.008639
3255.8296,0.008861
3257.6933,0.008811
3259.5569,0.008621
3261.4206,0.008746
3263.2843,0.008700
3265.1479,0.008695
3267.0116,0.008643
3268.8753,0.008596
3270.7390,0.008267
3272.6026,0.008120
3274.4663,0.008438
3276.3300,0.008405
3278.1936,0.007981
3280.0573,0.007691
3281.9210,0.007248
3283.7846,0.007135
3285.6483,0.007357
3287.5120,0.007143
3289.3756,0.006873
3291.2393,0.006524
3293.1030,0.005939
3294.9666,0.005850
3296.8303,0.005635
3298.6940,0.005101
3300.5577,0.004837
3302.4213,0.004466
3304.2850,0.004021
3306.1487,0.003634
3308.0123,0.003320
3309.8760,0.003408
3311.7397,0.003369
3313.6033,0.002959
3315.4670,0.002322
3317.3307,0.001638
3319.1943,0.000925
3321.0580,0.000529
3322.9217,0.000175
3324.7854,-0.000147
3326.6490,-0.000127
3328.5127,0.000199
3330.3764,-0.000032
3332.2400,-0.000555
3334.1037,-0.000650
3335.9674,-0.000678
3337.8310,-0.001468
3339.6947,-0.002184
3341.5584,-0.002238
3343.4220,-0.002238
3345.2857,-0.002489
3347.1494,-0.002711
3349.0130,-0.002711
3350.8767,-0.002463
3352.7404,-0.002786
3354.6041,-0.003077
3356.4677,-0.002953
3358.3314,-0.003373
3360.1951,-0.004131
3362.0587,-0.004097
3363.9224,-0.003974
3365.7861,-0.004147
3367.6497,-0.004521
3369.5134,-0.004670
3371.3771,-0.004738
3373.2407,-0.004869
3375.1044,-0.004726
3376.9681,-0.004776
3378.8317,-0.005242
3380.6954,-0.005370
3382.5591,-0.005350
3384.4228,-0.005583
3386.2864,-0.006163
3388.1501,-0.005911
3390.0138,-0.005161
3391.8774,-0.005183
3393.7411,-0.005919
3395.6048,-0.005988
3397.4684,-0.005541
3399.3321,-0.005566
3401.1958,-0.005577
3403.0594,-0.005646
3404.9231,-0.006173
3406.7868,-0.006240
3408.6505,-0.005979
3410.5141,-0.005754
3412.3778,-0.005921
3414.2415,-0.005748
3416.1051,-0.005589
3417.9688,-0.005736
3419.8325,-0.006077
3421.6961,-0.006455
3423.5598,-0.006300
3425.4235,-0.005821
3427.2871,-0.005801
3429.1508,-0.005765
3431.0145,-0.005331
3432.8781,-0.005581
3434.7418,-0.006183
3436.6055,-0.006006
3438.4692,-0.005451
3440.3328,-0.005186
3442.1965,-0.005768
3444.0602,-0.005890
3445.9238,-0.005593
3447.7875,-0.006034
3449.6512,-0.006658
3451.5148,-0.006314
3453.3785,-0.005795
3455.2422,-0.005836
3457.1058,-0.006091
3458.9695,-0.005888
3460.8332,-0.005437
3462.6969,-0.005379
3464.5605,-0.005506
3466.4242,-0.005148
3468.2879,-0.005294
3470.1515,-0.005774
3472.0152,-0.005738
3473.8789,-0.005463
3475.7425,-0.005428
3477.6062,-0.005232
3479.4699,-0.004945
3481.3335,-0.004652
3483.1972,-0.004802
3485.0609,-0.005094
3486.9245,-0.004829
3488.7882,-0.004703
3490.6519,-0.004808
3492.5156,-0.004673
3494.3792,-0.004915
3496.2429,-0.005105
3498.1066,-0.005011
3499.9702,-0.005154
3501.8339,-0.005564
3503.6976,-0.005133
3505.5612,-0.004168
3507.4249,-0.003647
3509.2886,-0.004186
3511.1522,-0.004287
3513.0159,-0.004279
3514.8796,-0.004742
3516.7432,-0.004705
3518.6069,-0.004474
3520.4706,-0.004912
3522.3343,-0.004996
3524.1979,-0.004919
3526.0616,-0.004719
3527.9253,-0.004464
3529.7889,-0.004222
3531.6526,-0.003854
3533.5163,-0.004004
3535.3799,-0.004701
3537.2436,-0.004678
3539.1073,-0.004625
3540.9709,-0.004894
3542.8346,-0.005272
3544.6983,-0.005453
3546.5620,-0.004976
3548.4256,-0.004065
3550.2893,-0.004259
3552.1530,-0.004882
3554.0166,-0.004526
3555.8803,-0.003934
3557.7440,-0.004733
3559.6076,-0.005279
3561.4713,-0.004971
3563.3350,-0.005130
3565.1986,-0.005396
3567.0623,-0.005237
3568.9260,-0.005224
3570.7896,-0.005280
3572.6533,-0.005251
3574.5170,-0.005253
3576.3807,-0.005070
3578.2443,-0.004769
3580.1080,-0.005311
3581.9717,-0.005629
3583.8353,-0.005646
3585.6990,-0.005556
3587.5627,-0.005490
3589.4263,-0.005010
3591.2900,-0.004889
3593.1537,-0.005231
3595.0173,-0.005504
3596.8810,-0.005217
3598.7447,-0.005456
3600.6084,-0.006249
3602.4720,-0.006212
3604.3357,-0.005738
3606.1994,-0.005917
3608.0630,-0.006309
3609.9267,-0.006408
3611.7904,-0.006061
3613.6540,-0.006366
3615.5177,-0.006609
3617.3814,-0.006468
3619.2450,-0.006442
3621.1087,-0.006388
3622.9724,-0.006354
3624.8360,-0.006970
3626.6997,-0.007650
3628.5634,-0.007791
3630.4271,-0.006721
3632.2907,-0.006040
3634.1544,-0.006479
3636.0181,-0.007080
3637.8817,-0.007095
3639.7454,-0.007026
3641.6091,-0.006720
3643.4727,-0.006892
3645.3364,-0.007586
3647.2001,-0.007965
3649.0637,-0.007725
3650.9274,-0.007362
3652.7911,-0.006808
3654.6547,-0.006539
3656.5184,-0.007051
3658.3821,-0.007634
3660.2458,-0.007311
3662.1094,-0.007146
3663.9731,-0.007191
3665.8368,-0.007019
3667.7004,-0.006734
3669.5641,-0.007310
3671.4278,-0.007823
3673.2914,-0.007351
3675.1551,-0.007482
3677.0188,-0.007951
3678.8824,-0.007277
3680.7461,-0.006998
3682.6098,-0.006473
3684.4735,-0.006056
3686.3371,-0.006369
3688.2008,-0.006749
3690.0645,-0.006698
3691.9281,-0.006840
3693.7918,-0.006478
3695.6555,-0.005891
3697.5191,-0.005729
3699.3828,-0.005664
3701.2465,-0.005645
3703.1101,-0.005740
3704.9738,-0.005529
3706.8375,-0.005549
3708.7011,-0.005679
3710.5648,-0.005929
3712.4285,-0.006426
3714.2922,-0.006347
3716.1558,-0.005636
3718.0195,-0.005379
3719.8832,-0.005425
3721.7468,-0.005915
3723.6105,-0.006238
3725.4742,-0.005881
3727.3378,-0.005399
3729.2015,-0.005410
3731.0652,-0.005769
3732.9288,-0.006078
3734.7925,-0.005847
3736.6562,-0.005548
3738.5199,-0.005275
3740.3835,-0.005138
3742.2472,-0.005290
3744.1109,-0.006130
3745.9745,-0.006869
3747.8382,-0.005696
3749.7019,-0.005187
3751.5655,-0.006177
3753.4292,-0.006215
3755.2929,-0.005490
3757.1565,-0.005323
3759.0202,-0.005723
3760.8839,-0.005669
3762.7475,-0.005123
3764.6112,-0.004987
3766.4749,-0.005403
3768.3386,-0.004971
3770.2022,-0.005155
3772.0659,-0.005651
3773.9296,-0.005324
3775.7932,-0.005079
3777.6569,-0.005062
3779.5206,-0.005370
3781.3842,-0.005782
3783.2479,-0.005578
3785.1116,-0.005528
3786.9752,-0.005415
3788.8389,-0.005130
3790.7026,-0.004949
3792.5662,-0.004984
3794.4299,-0.004960
3796.2936,-0.005224
3798.1573,-0.005647
3800.0209,-0.005636
3801.8846,-0.005699
3803.7483,-0.005482
3805.6119,-0.004996
3807.4756,-0.005325
3809.3393,-0.005320
3811.2029,-0.004894
3813.0666,-0.004891
3814.9303,-0.005206
3816.7939,-0.005377
3818.6576,-0.004948
3820.5213,-0.005043
3822.3850,-0.005940
3824.2486,-0.005490
3826.1123,-0.005316
3827.9760,-0.005435
3829.8396,-0.005020
3831.7033,-0.004895
3833.5670,-0.005239
3835.4306,-0.005181
3837.2943,-0.005160
3839.1580,-0.005518
3841.0216,-0.005674
3842.8853,-0.005098
3844.7490,-0.004896
3846.6126,-0.005193
3848.4763,-0.005251
3850.3400,-0.004988
3852.2037,-0.005548
3854.0673,-0.006746
3855.9310,-0.006804
3857.7947,-0.005670
3859.6583,-0.005313
3861.5220,-0.005006
3863.3857,-0.004937
3865.2493,-0.005327
3867.1130,-0.005124
3868.9767,-0.004830
3870.8403,-0.005194
3872.7040,-0.005150
3874.5677,-0.005116
3876.4314,-0.005367
3878.2950,-0.005266
3880.1587,-0.005093
3882.0224,-0.005122
3883.8860,-0.005126
3885.7497,-0.005312
3887.6134,-0.004928
3889.4770,-0.004493
3891.3407,-0.004769
3893.2044,-0.005209
3895.0680,-0.005321
3896.9317,-0.005307
3898.7954,-0.005100
3900.6590,-0.005170
3902.5227,-0.005101
3904.3864,-0.005022
3906.2501,-0.004909
3908.1137,-0.004761
3909.9774,-0.004669
3911.8411,-0.004860
3913.7047,-0.004641
3915.5684,-0.004623
3917.4321,-0.005076
3919.2957,-0.005088
3921.1594,-0.004463
3923.0231,-0.004412
3924.8867,-0.004787
3926.7504,-0.004630
3928.6141,-0.004326
3930.4777,-0.004590
3932.3414,-0.005202
3934.2051,-0.005459
3936.0688,-0.004993
3937.9324,-0.004774
3939.7961,-0.004660
3941.6598,-0.004338
3943.5234,-0.004385
3945.3871,-0.004943
3947.2508,-0.005101
3949.1144,-0.005141
3950.9781,-0.004969
3952.8418,-0.004741
3954.7054,-0.004958
3956.5691,-0.005050
3958.4328,-0.004604
3960.2965,-0.004385
3962.1601,-0.004429
3964.0238,-0.004590
3965.8875,-0.004619
3967.7511,-0.004672
3969.6148,-0.004612
3971.4785,-0.004482
3973.3421,-0.004417
3975.2058,-0.004488
3977.0695,-0.004597
3978.9331,-0.004740
3980.7968,-0.004635
3982.6605,-0.004852
3984.5241,-0.004833
3986.3878,-0.004767
3988.2515,-0.004590
3990.1152,-0.004553
3991.9788,-0.004517
3993.8425,-0.004234
3995.7062,-0.004063
3997.5698,-0.004179
3999.4335,-0.004583
