Wavenumber,Intensity
650.4205,0.082296
652.2841,0.081402
654.1478,0.082516
656.0115,0.083769
657.8751,0.083390
659.7388,0.083230
661.6025,0.083872
663.4661,0.081991
665.3298,0.078089
667.1935,0.076845
669.0571,0.080330
670.9208,0.080770
672.7845,0.078735
674.6481,0.076761
676.5118,0.077648
678.3755,0.077887
680.2392,0.075544
682.1028,0.074392
683.9665,0.074172
685.8302,0.073565
687.6938,0.074264
689.5575,0.074048
691.4212,0.072566
693.2848,0.072016
695.1485,0.072204
697.0122,0.072067
698.8758,0.070535
700.7395,0.069151
702.6032,0.069810
704.4669,0.069784
706.3305,0.068212
708.1942,0.066873
710.0579,0.066477
711.9215,0.066160
713.7852,0.065182
715.6489,0.064065
717.5125,0.063619
719.3762,0.063617
721.2399,0.063422
723.1035,0.062902
724.9672,0.061807
726.8309,0.060713
728.6945,0.059880
730.5582,0.059210
732.4219,0.058839
734.2856,0.058692
736.1492,0.058094
738.0129,0.057257
739.8766,0.056818
741.7402,0.056693
743.6039,0.056849
745.4676,0.056557
747.3312,0.055845
749.1949,0.055241
751.0586,0.054755
752.9222,0.054574
754.7859,0.054262
756.6496,0.054063
758.5132,0.053867
760.3769,0.053645
762.2406,0.053682
764.1043,0.053449
765.9679,0.053092
767.8316,0.052735
769.6953,0.052037
771.5589,0.051428
773.4226,0.051284
775.2863,0.051119
777.1499,0.050735
779.0136,0.050275
780.8773,0.049745
782.7409,0.049377
784.6046,0.048948
786.4683,0.048288
788.3320,0.047711
790.1956,0.047264
792.0593,0.046701
793.9230,0.046073
795.7866,0.045704
797.6503,0.045735
799.5140,0.045967
801.3776,0.045820
803.2413,0.045210
805.1050,0.044912
806.9686,0.045007
808.8323,0.045133
810.6960,0.045151
812.5596,0.044930
814.4233,0.044925
816.2870,0.045079
818.1507,0.044876
820.0143,0.044662
821.8780,0.044338
823.7417,0.043638
825.6053,0.042983
827.4690,0.042304
829.3327,0.041396
831.1963,0.040662
833.0600,0.040014
834.9237,0.039405
836.7873,0.038678
838.6510,0.037976
840.5147,0.037488
842.3784,0.037120
844.2420,0.036696
846.1057,0.036313
847.9694,0.036195
849.8330,0.035886
851.6967,0.035539
853.5604,0.035543
855.4240,0.035476
857.2877,0.035318
859.1514,0.035215
861.0150,0.035330
862.8787,0.035669
864.7424,0.036070
866.6060,0.036322
868.4697,0.036453
870.3334,0.036524
872.1971,0.036569
874.0607,0.036584
875.9244,0.036466
877.7881,0.036125
879.6517,0.035512
881.5154,0.035096
883.3791,0.035110
885.2427,0.034911
887.1064,0.034647
888.9701,0.034552
890.8337,0.034433
892.6974,0.034267
894.5611,0.034132
896.4247,0.033974
898.2884,0.033746
900.1521,0.033522
902.0158,0.033306
903.8794,0.033040
905.7431,0.032752
907.6068,0.032681
909.4704,0.032860
911.3341,0.033008
913.1978,0.033188
915.0614,0.033426
916.9251,0.033658
918.7888,0.033887
920.6524,0.034116
922.5161,0.034175
924.3798,0.034189
926.2435,0.034296
928.1071,0.034375
929.9708,0.034594
931.8345,0.034965
933.6981,0.035216
935.5618,0.035528
937.4255,0.036194
939.2891,0.037001
941.1528,0.037840
943.0165,0.038680
944.8801,0.039435
946.7438,0.040200
948.6075,0.040734
950.4711,0.040943
952.3348,0.041053
954.1985,0.041370
956.0622,0.042010
957.9258,0.043037
959.7895,0.044527
961.6532,0.046363
963.5168,0.048235
965.3805,0.049937
967.2442,0.051192
969.1078,0.052059
970.9715,0.052602
972.8352,0.053056
974.6988,0.053703
976.5625,0.054682
978.4262,0.055917
980.2899,0.057270
982.1535,0.058691
984.0172,0.059999
985.8809,0.061144
987.7445,0.062294
989.6082,0.063434
991.4719,0.064396
993.3355,0.065344
995.1992,0.066474
997.0629,0.067465
998.9265,0.068124
1000.7902,0.068677
1002.6539,0.069354
1004.5175,0.070177
1006.3812,0.071328
1008.2449,0.072969
1010.1086,0.075013
1011.9722,0.077262
1013.8359,0.079697
1015.6996,0.082251
1017.5632,0.084716
1019.4269,0.086654
1021.2906,0.088044
1023.1542,0.089254
1025.0179,0.090298
1026.8816,0.091273
1028.7452,0.092251
1030.6089,0.093063
1032.4726,0.093724
1034.3362,0.094000
1036.1999,0.093934
1038.0636,0.093814
1039.9273,0.093513
1041.7909,0.092974
1043.6546,0.092384
1045.5183,0.091982
1047.3819,0.091775
1049.2456,0.091737
1051.1093,0.091785
1052.9729,0.091902
1054.8366,0.092092
1056.7003,0.092313
1058.5639,0.092507
1060.4276,0.092654
1062.2913,0.092772
1064.1550,0.092756
1066.0186,0.092775
1067.8823,0.092724
1069.7460,0.092482
1071.6096,0.092155
1073.4733,0.091532
1075.3370,0.090445
1077.2006,0.089021
1079.0643,0.087129
1080.9280,0.084841
1082.7916,0.082216
1084.6553,0.079464
1086.5190,0.076774
1088.3826,0.074271
1090.2463,0.072024
1092.1100,0.070002
1093.9737,0.068276
1095.8373,0.066767
1097.7010,0.065345
1099.5647,0.064032
1101.4283,0.062926
1103.2920,0.062043
1105.1557,0.061221
1107.0193,0.060563
1108.8830,0.060070
1110.7467,0.059587
1112.6103,0.059031
1114.4740,0.058418
1116.3377,0.057678
1118.2014,0.056859
1120.0650,0.056051
1121.9287,0.055198
1123.7924,0.054277
1125.6560,0.053385
1127.5197,0.052511
1129.3834,0.051614
1131.2470,0.050647
1133.1107,0.049599
1134.9744,0.048581
1136.8380,0.047549
1138.7017,0.046544
1140.5654,0.045655
1142.4290,0.044943
1144.2927,0.044472
1146.1564,0.044213
1148.0201,0.044172
1149.8837,0.044272
1151.7474,0.044333
1153.6111,0.044324
1155.4747,0.044246
1157.3384,0.044011
1159.2021,0.043638
1161.0657,0.043274
1162.9294,0.042806
1164.7931,0.042099
1166.6567,0.041198
1168.5204,0.040154
1170.3841,0.038832
1172.2477,0.037215
1174.1114,0.035501
1175.9751,0.033899
1177.8388,0.032460
1179.7024,0.031410
1181.5661,0.030753
1183.4298,0.030328
1185.2934,0.030188
1187.1571,0.030349
1189.0208,0.030711
1190.8844,0.031140
1192.7481,0.031752
1194.6118,0.032531
1196.4754,0.033433
1198.3391,0.034430
1200.2028,0.035467
1202.0665,0.036481
1203.9301,0.037482
1205.7938,0.038372
1207.6575,0.039087
1209.5211,0.039756
1211.3848,0.040424
1213.2485,0.041083
1215.1121,0.041781
1216.9758,0.042504
1218.8395,0.043393
1220.7031,0.044276
1222.5668,0.045066
1224.4305,0.045897
1226.2941,0.046722
1228.1578,0.047447
1230.0215,0.048076
1231.8852,0.048554
1233.7488,0.048908
1235.6125,0.049127
1237.4762,0.049207
1239.3398,0.049285
1241.2035,0.049288
1243.0672,0.049076
1244.9308,0.048789
1246.7945,0.048433
1248.6582,0.047982
1250.5218,0.047487
1252.3855,0.047077
1254.2492,0.046653
1256.1129,0.046230
1257.9765,0.045733
1259.8402,0.045283
1261.7039,0.044838
1263.5675,0.044410
1265.4312,0.044062
1267.2949,0.043758
1269.1585,0.043430
1271.0222,0.043112
1272.8859,0.042817
1274.7495,0.042614
1276.6132,0.042416
1278.4769,0.042202
1280.3405,0.042019
1282.2042,0.041945
1284.0679,0.041816
1285.9316,0.041833
1287.7952,0.041995
1289.6589,0.042170
1291.5226,0.042381
1293.3862,0.042659
1295.2499,0.043010
1297.1136,0.043463
1298.9772,0.043953
1300.8409,0.044500
1302.7046,0.044996
1304.5682,0.045364
1306.4319,0.045772
1308.2956,0.046247
1310.1592,0.046645
1312.0229,0.046915
1313.8866,0.046914
1315.7503,0.046834
1317.6139,0.046887
1319.4776,0.046835
1321.3413,0.046445
1323.2049,0.046006
1325.0686,0.045656
1326.9323,0.045330
1328.7959,0.045011
1330.6596,0.044795
1332.5233,0.044541
1334.3869,0.044436
1336.2506,0.044583
1338.1143,0.044954
1339.9780,0.045421
1341.8416,0.045385
1343.7053,0.045187
1345.5690,0.045064
1347.4326,0.045084
1349.2963,0.045159
1351.1600,0.045101
1353.0236,0.045201
1354.8873,0.045449
1356.7510,0.045510
1358.6146,0.045545
1360.4783,0.046222
1362.3420,0.047765
1364.2056,0.048823
1366.0693,0.049338
1367.9330,0.050452
1369.7967,0.051367
1371.6603,0.052034
1373.5240,0.053370
1375.3877,0.054342
1377.2513,0.054413
1379.1150,0.054503
1380.9787,0.054342
1382.8423,0.054028
1384.7060,0.053872
1386.5697,0.054436
1388.4333,0.054840
1390.2970,0.054121
1392.1607,0.053768
1394.0244,0.054451
1395.8880,0.054990
1397.7517,0.055041
1399.6154,0.055219
1401.4790,0.054523
1403.3427,0.054188
1405.2064,0.054316
1407.0700,0.053660
1408.9337,0.052775
1410.7974,0.052215
1412.6610,0.051494
1414.5247,0.050518
1416.3884,0.050049
1418.2520,0.050829
1420.1157,0.051002
1421.9794,0.049877
1423.8431,0.049613
1425.7067,0.049390
1427.5704,0.049304
1429.4341,0.050085
1431.2977,0.050565
1433.1614,0.050460
1435.0251,0.051366
1436.8887,0.053737
1438.7524,0.053866
1440.6161,0.053291
1442.4797,0.053260
1444.3434,0.053100
1446.2071,0.053352
1448.0707,0.053700
1449.9344,0.053005
1451.7981,0.051826
1453.6618,0.050607
1455.5254,0.050601
1457.3891,0.052319
1459.2528,0.050432
1461.1164,0.047660
1462.9801,0.046564
1464.8438,0.046702
1466.7074,0.045455
1468.5711,0.043608
1470.4348,0.042710
1472.2984,0.043232
1474.1621,0.042961
1476.0258,0.041863
1477.8895,0.040884
1479.7531,0.040302
1481.6168,0.040429
1483.4805,0.040352
1485.3441,0.040625
1487.2078,0.042183
1489.0715,0.044947
1490.9351,0.046789
1492.7988,0.046609
1494.6625,0.047813
1496.5261,0.051693
1498.3898,0.054493
1500.2535,0.055180
1502.1171,0.054974
1503.9808,0.055737
1505.8445,0.061595
1507.7082,0.068713
1509.5718,0.068491
1511.4355,0.068928
1513.2992,0.070014
1515.1628,0.071155
1517.0265,0.072736
1518.8902,0.073172
1520.7538,0.075297
1522.6175,0.077552
1524.4812,0.077387
1526.3448,0.078371
1528.2085,0.078448
1530.0722,0.078075
1531.9359,0.079165
1533.7995,0.080985
1535.6632,0.079345
1537.5269,0.078331
1539.3905,0.081597
1541.2542,0.083974
1543.1179,0.082489
1544.9815,0.081121
1546.8452,0.079159
1548.7089,0.077818
1550.5725,0.076653
1552.4362,0.074593
1554.2999,0.072650
1556.1635,0.071061
1558.0272,0.072906
1559.8909,0.073798
1561.7546,0.069295
1563.6182,0.066482
1565.4819,0.064767
1567.3456,0.063254
1569.2092,0.062633
1571.0729,0.061151
1572.9366,0.058910
1574.8002,0.058452
1576.6639,0.058928
1578.5276,0.057334
1580.3912,0.055799
1582.2549,0.055184
1584.1186,0.054942
1585.9822,0.054848
1587.8459,0.054778
1589.7096,0.055059
1591.5733,0.055666
1593.4369,0.056720
1595.3006,0.057895
1597.1643,0.058849
1599.0279,0.059910
1600.8916,0.061549
1602.7553,0.063457
1604.6189,0.065420
1606.4826,0.067670
1608.3463,0.070363
1610.2099,0.072868
1612.0736,0.074559
1613.9373,0.076283
1615.8010,0.080114
1617.6646,0.083933
1619.5283,0.084537
1621.3920,0.085980
1623.2556,0.089143
1625.1193,0.090956
1626.9830,0.091969
1628.8466,0.092868
1630.7103,0.092453
1632.5740,0.091662
1634.4376,0.092804
1636.3013,0.094577
1638.1650,0.092846
1640.0286,0.090674
1641.8923,0.088730
1643.7560,0.087075
1645.6197,0.086971
1647.4833,0.086102
1649.3470,0.082778
1651.2107,0.080934
1653.0743,0.082567
1654.9380,0.080063
1656.8017,0.076000
1658.6653,0.072928
1660.5290,0.070643
1662.3927,0.068536
1664.2563,0.065617
1666.1200,0.062613
1667.9837,0.060291
1669.8474,0.057957
1671.7110,0.055097
1673.5747,0.052513
1675.4384,0.050221
1677.3020,0.047099
1679.1657,0.044203
1681.0294,0.041365
1682.8930,0.039084
1684.7567,0.036838
1686.6204,0.033567
1688.4840,0.030576
1690.3477,0.027484
1692.2114,0.024297
1694.0750,0.021672
1695.9387,0.019093
1697.8024,0.016438
1699.6661,0.014067
1701.5297,0.011888
1703.3934,0.010109
1705.2571,0.008477
1707.1207,0.006976
1708.9844,0.005921
1710.8481,0.005034
1712.7117,0.004251
1714.5754,0.003618
1716.4391,0.003254
1718.3027,0.002967
1720.1664,0.002511
1722.0301,0.002016
1723.8937,0.001712
1725.7574,0.001503
1727.6211,0.001281
1729.4848,0.000999
1731.3484,0.001077
1733.2121,0.001164
1735.0758,0.001379
1736.9394,0.001168
1738.8031,0.001040
1740.6668,0.001132
1742.5304,0.001295
1744.3941,0.001093
1746.2578,0.000770
1748.1214,0.000670
1749.9851,0.000654
1751.8488,0.000408
1753.7125,-0.000037
1755.5761,-0.000415
1757.4398,-0.000438
1759.3035,-0.000575
1761.1671,-0.000735
1763.0308,-0.000692
1764.8945,-0.000733
1766.7581,-0.000983
1768.6218,-0.001041
1770.4855,-0.001123
1772.3491,-0.001159
1774.2128,-0.001173
1776.0765,-0.001163
1777.9401,-0.001213
1779.8038,-0.001252
1781.6675,-0.000999
1783.5312,-0.000985
1785.3948,-0.001153
1787.2585,-0.001273
1789.1222,-0.001309
1790.9858,-0.001156
1792.8495,-0.001149
1794.7132,-0.001308
1796.5768,-0.001315
1798.4405,-0.001308
1800.3042,-0.001184
1802.1678,-0.001233
1804.0315,-0.001503
1805.8952,-0.001546
1807.7589,-0.001494
1809.6225,-0.001468
1811.4862,-0.001408
1813.3499,-0.001531
1815.2135,-0.001794
1817.0772,-0.001643
1818.9409,-0.001242
1820.8045,-0.001186
1822.6682,-0.001272
1824.5319,-0.001230
1826.3955,-0.001225
1828.2592,-0.001528
1830.1229,-0.001495
1831.9865,-0.001051
1833.8502,-0.001140
1835.7139,-0.001600
1837.5776,-0.001888
1839.4412,-0.001641
1841.3049,-0.001154
1843.1686,-0.000810
1845.0322,-0.000789
1846.8959,-0.000862
1848.7596,-0.000879
1850.6232,-0.001081
1852.4869,-0.001142
1854.3506,-0.001147
1856.2142,-0.001302
1858.0779,-0.001249
1859.9416,-0.001246
1861.8052,-0.001143
1863.6689,-0.001026
1865.5326,-0.000890
1867.3963,-0.000713
1869.2599,-0.000505
1871.1236,-0.000503
1872.9873,-0.000697
1874.8509,-0.000787
1876.7146,-0.000705
1878.5783,-0.000847
1880.4419,-0.001011
1882.3056,-0.000926
1884.1693,-0.000941
1886.0329,-0.000931
1887.8966,-0.000529
1889.7603,-0.000236
1891.6240,-0.000224
1893.4876,-0.000299
1895.3513,-0.000302
1897.2150,-0.000303
1899.0786,-0.000312
1900.9423,-0.000444
1902.8060,-0.000568
1904.6696,-0.000253
1906.5333,0.000051
1908.3970,-0.000381
1910.2606,-0.000502
1912.1243,0.000077
1913.9880,0.000632
1915.8516,0.000128
1917.7153,-0.000520
1919.5790,0.000051
1921.4427,0.000517
1923.3063,0.000280
1925.1700,-0.000073
1927.0337,-0.000183
1928.8973,0.000106
1930.7610,0.000112
1932.6247,0.000299
1934.4883,0.000490
1936.3520,0.000157
1938.2157,-0.000402
1940.0793,-0.000329
1941.9430,0.000456
1943.8067,0.001021
1945.6704,0.001245
1947.5340,0.001018
1949.3977,0.000545
1951.2614,0.000964
1953.1250,0.001710
1954.9887,0.001477
1956.8524,0.000776
1958.7160,0.001310
1960.5797,0.001850
1962.4434,0.001618
1964.3070,0.002050
1966.1707,0.002320
1968.0344,0.001906
1969.8980,0.001871
1971.7617,0.001704
1973.6254,0.001644
1975.4891,0.002836
1977.3527,0.004713
1979.2164,0.005458
1981.0801,0.004730
1982.9437,0.004025
1984.8074,0.003526
1986.6711,0.002572
1988.5347,0.002618
1990.3984,0.003061
1992.2621,0.002412
1994.1257,0.001950
1995.9894,0.002361
1997.8531,0.003078
1999.7167,0.003016
2001.5804,0.002489
2003.4441,0.002378
2005.3078,0.002331
2007.1714,0.002321
2009.0351,0.002253
2010.8988,0.002211
2012.7624,0.002714
2014.6261,0.003530
2016.4898,0.003402
2018.3534,0.003074
2020.2171,0.003158
2022.0808,0.003363
2023.9444,0.003250
2025.8081,0.003830
2027.6718,0.004358
2029.5355,0.004414
2031.3991,0.005073
2033.2628,0.005814
2035.1265,0.005501
2036.9901,0.004496
2038.8538,0.004367
2040.7175,0.004246
2042.5811,0.003733
2044.4448,0.004616
2046.3085,0.005504
2048.1721,0.005522
2050.0358,0.005466
2051.8995,0.004617
2053.7631,0.004236
2055.6268,0.004372
2057.4905,0.003203
2059.3542,0.002718
2061.2178,0.003449
2063.0815,0.003310
2064.9452,0.002886
2066.8088,0.002980
2068.6725,0.003536
2070.5362,0.004130
2072.3998,0.004019
2074.2635,0.004284
2076.1272,0.004185
2077.9908,0.003325
2079.8545,0.003338
2081.7182,0.003641
2083.5819,0.003470
2085.4455,0.003221
2087.3092,0.002884
2089.1729,0.002671
2091.0365,0.002517
2092.9002,0.002102
2094.7639,0.001617
2096.6275,0.001790
2098.4912,0.002584
2100.3549,0.003311
2102.2185,0.003717
2104.0822,0.003452
2105.9459,0.003080
2107.8095,0.003001
2109.6732,0.002954
2111.5369,0.002803
2113.4006,0.002633
2115.2642,0.002338
2117.1279,0.002219
2118.9916,0.002397
2120.8552,0.002391
2122.7189,0.002181
2124.5826,0.001939
2126.4462,0.001945
2128.3099,0.001683
2130.1736,0.001070
2132.0372,0.000730
2133.9009,0.000694
2135.7646,0.001182
2137.6282,0.001896
2139.4919,0.001483
2141.3556,0.000806
2143.2193,0.001739
2145.0829,0.002775
2146.9466,0.002745
2148.8103,0.002778
2150.6739,0.002458
2152.5376,0.002553
2154.4013,0.003713
2156.2649,0.004326
2158.1286,0.005252
2159.9923,0.006340
2161.8559,0.006883
2163.7196,0.007959
2165.5833,0.008393
2167.4470,0.007609
2169.3106,0.006335
2171.1743,0.005038
2173.0380,0.004606
2174.9016,0.004972
2176.7653,0.004866
2178.6290,0.004633
2180.4926,0.005245
2182.3563,0.005810
2184.2200,0.005243
2186.0836,0.004602
2187.9473,0.004557
2189.8110,0.005193
2191.6746,0.005920
2193.5383,0.005884
2195.4020,0.005434
2197.2657,0.003950
2199.1293,0.003192
2200.9930,0.003993
2202.8567,0.004291
2204.7203,0.003980
2206.5840,0.003940
2208.4477,0.003737
2210.3113,0.003331
2212.1750,0.003674
2214.0387,0.003988
2215.9023,0.003975
2217.7660,0.004330
2219.6297,0.004469
2221.4934,0.004228
2223.3570,0.004467
2225.2207,0.004680
2227.0844,0.003816
2228.9480,0.002938
2230.8117,0.002999
2232.6754,0.003498
2234.5390,0.003797
2236.4027,0.003897
2238.2664,0.003975
2240.1300,0.003425
2241.9937,0.002903
2243.8574,0.003527
2245.7210,0.004000
2247.5847,0.003568
2249.4484,0.002790
2251.3121,0.002403
2253.1757,0.002953
2255.0394,0.003700
2256.9031,0.003769
2258.7667,0.003629
2260.6304,0.003684
2262.4941,0.003299
2264.3577,0.002565
2266.2214,0.003051
2268.0851,0.003501
2269.9487,0.002997
2271.8124,0.002858
2273.6761,0.002991
2275.5397,0.003247
2277.4034,0.003358
2279.2671,0.003468
2281.1308,0.003767
2282.9944,0.003730
2284.8581,0.003136
2286.7218,0.002786
2288.5854,0.002953
2290.4491,0.002998
2292.3128,0.002644
2294.1764,0.002239
2296.0401,0.001884
2297.9038,0.001800
2299.7674,0.002038
2301.6311,0.001988
2303.4948,0.001823
2305.3585,0.002057
2307.2221,0.002189
2309.0858,0.002074
2310.9495,0.002382
2312.8131,0.002585
2314.6768,0.002201
2316.5405,0.002037
2318.4041,0.002380
2320.2678,0.002953
2322.1315,0.003215
2323.9951,0.002978
2325.8588,0.002210
2327.7225,0.001388
2329.5861,0.001121
2331.4498,0.001229
2333.3135,0.001285
2335.1772,0.001119
2337.0408,0.001100
2338.9045,0.001153
2340.7682,0.001291
2342.6318,0.001606
2344.4955,0.002096
2346.3592,0.002077
2348.2228,0.001360
2350.0865,0.000538
2351.9502,-0.000111
2353.8138,0.000009
2355.6775,0.000854
2357.5412,0.001446
2359.4049,0.001600
2361.2685,0.002203
2363.1322,0.002387
2364.9959,0.002157
2366.8595,0.002295
2368.7232,0.002251
2370.5869,0.001828
2372.4505,0.001787
2374.3142,0.002122
2376.1779,0.001799
2378.0415,0.001220
2379.9052,0.000881
2381.7689,0.000696
2383.6325,0.000713
2385.4962,0.000792
2387.3599,0.000707
2389.2236,0.000709
2391.0872,0.000669
2392.9509,0.000764
2394.8146,0.000899
2396.6782,0.000942
2398.5419,0.000843
2400.4056,0.000758
2402.2692,0.000742
2404.1329,0.000871
2405.9966,0.000891
2407.8602,0.000924
2409.7239,0.001236
2411.5876,0.001197
2413.4512,0.000992
2415.3149,0.001290
2417.1786,0.001455
2419.0423,0.001212
2420.9059,0.001130
2422.7696,0.001520
2424.6333,0.001748
2426.4969,0.001505
2428.3606,0.001359
2430.2243,0.001453
2432.0879,0.001622
2433.9516,0.001432
2435.8153,0.000956
2437.6789,0.001033
2439.5426,0.001617
2441.4063,0.001791
2443.2700,0.001491
2445.1336,0.001390
2446.9973,0.001888
2448.8610,0.002257
2450.7246,0.002362
2452.5883,0.002256
2454.4520,0.001914
2456.3156,0.001639
2458.1793,0.001618
2460.0430,0.001628
2461.9066,0.001652
2463.7703,0.001738
2465.6340,0.001973
2467.4976,0.002041
2469.3613,0.001743
2471.2250,0.001472
2473.0887,0.001598
2474.9523,0.002032
2476.8160,0.002394
2478.6797,0.002438
2480.5433,0.002387
2482.4070,0.002110
2484.2707,0.001751
2486.1343,0.001610
2487.9980,0.001794
2489.8617,0.002018
2491.7253,0.002220
2493.5890,0.002375
2495.4527,0.002396
2497.3164,0.002243
2499.1800,0.002269
2501.0437,0.002566
2502.9074,0.002522
2504.7710,0.002195
2506.6347,0.002202
2508.4984,0.002428
2510.3620,0.002342
2512.2257,0.002252
2514.0894,0.002260
2515.9530,0.002213
2517.8167,0.002586
2519.6804,0.002957
2521.5440,0.002749
2523.4077,0.002670
2525.2714,0.002663
2527.1351,0.002855
2528.9987,0.002869
2530.8624,0.002753
2532.7261,0.002759
2534.5897,0.002795
2536.4534,0.002925
2538.3171,0.002619
2540.1807,0.002434
2542.0444,0.002798
2543.9081,0.003028
2545.7717,0.003008
2547.6354,0.003042
2549.4991,0.002746
2551.3627,0.002565
2553.2264,0.002968
2555.0901,0.003307
2556.9538,0.003442
2558.8174,0.003274
2560.6811,0.002966
2562.5448,0.003105
2564.4084,0.003376
2566.2721,0.003246
2568.1358,0.003258
2569.9994,0.003621
2571.8631,0.003649
2573.7268,0.003342
2575.5904,0.003403
2577.4541,0.003711
2579.3178,0.003685
2581.1815,0.003600
2583.0451,0.003627
2584.9088,0.003778
2586.7725,0.003866
2588.6361,0.003894
2590.4998,0.004036
2592.3635,0.004333
2594.2271,0.004000
2596.0908,0.003811
2597.9545,0.003942
2599.8181,0.003894
2601.6818,0.003776
2603.5455,0.003943
2605.4091,0.004362
2607.2728,0.004310
2609.1365,0.004336
2611.0002,0.004489
2612.8638,0.004370
2614.7275,0.004429
2616.5912,0.004779
2618.4548,0.004892
2620.3185,0.004753
2622.1822,0.004777
2624.0458,0.004904
2625.9095,0.004829
2627.7732,0.004779
2629.6368,0.004976
2631.5005,0.005070
2633.3642,0.004924
2635.2279,0.004960
2637.0915,0.005186
2638.9552,0.005172
2640.8189,0.005093
2642.6825,0.005032
2644.5462,0.005237
2646.4099,0.005450
2648.2735,0.005468
2650.1372,0.005404
2652.0009,0.005298
2653.8645,0.005264
2655.7282,0.005303
2657.5919,0.005341
2659.4555,0.005239
2661.3192,0.005078
2663.1829,0.005118
2665.0466,0.005134
2666.9102,0.005021
2668.7739,0.004943
2670.6376,0.005200
2672.5012,0.005339
2674.3649,0.005273
2676.2286,0.005224
2678.0922,0.005477
2679.9559,0.005554
2681.8196,0.005358
2683.6832,0.005373
2685.5469,0.005454
2687.4106,0.005565
2689.2742,0.005772
2691.1379,0.005844
2693.0016,0.005893
2694.8653,0.005827
2696.7289,0.005747
2698.5926,0.005899
2700.4563,0.006200
2702.3199,0.006340
2704.1836,0.006267
2706.0473,0.006240
2707.9109,0.006276
2709.7746,0.006585
2711.6383,0.006869
2713.5019,0.006791
2715.3656,0.006631
2717.2293,0.006666
2719.0930,0.006830
2720.9566,0.006966
2722.8203,0.007042
2724.6840,0.007126
2726.5476,0.007360
2728.4113,0.007646
2730.2750,0.007534
2732.1386,0.007473
2734.0023,0.007808
2735.8660,0.007992
2737.7296,0.007830
2739.5933,0.007730
2741.4570,0.007878
2743.3206,0.007953
2745.1843,0.008081
2747.0480,0.008288
2748.9117,0.008351
2750.7753,0.008405
2752.6390,0.008489
2754.5027,0.008631
2756.3663,0.008704
2758.2300,0.008971
2760.0937,0.009184
2761.9573,0.009065
2763.8210,0.008918
2765.6847,0.009027
2767.5483,0.009422
2769.4120,0.009703
2771.2757,0.009798
2773.1394,0.009798
2775.0030,0.009678
2776.8667,0.009731
2778.7304,0.009969
2780.5940,0.010189
2782.4577,0.010266
2784.3214,0.010402
2786.1850,0.010545
2788.0487,0.010669
2789.9124,0.010869
2791.7760,0.011099
2793.6397,0.011023
2795.5034,0.011134
2797.3670,0.011512
2799.2307,0.011484
2801.0944,0.011411
2802.9581,0.011589
2804.8217,0.011780
2806.6854,0.011977
2808.5491,0.012187
2810.4127,0.012395
2812.2764,0.012382
2814.1401,0.012441
2816.0037,0.012851
2817.8674,0.013036
2819.7311,0.012900
2821.5947,0.013102
2823.4584,0.013557
2825.3221,0.013694
2827.1857,0.013839
2829.0494,0.013873
2830.9131,0.014133
2832.7768,0.014534
2834.6404,0.014828
2836.5041,0.015005
2838.3678,0.015179
2840.2314,0.015367
2842.0951,0.015812
2843.9588,0.016482
2845.8224,0.016966
2847.6861,0.017462
2849.5498,0.017969
2851.4134,0.018379
2853.2771,0.018479
2855.1408,0.018736
2857.0045,0.019056
2858.8681,0.019112
2860.7318,0.019024
2862.5955,0.019175
2864.4591,0.019513
2866.3228,0.020014
2868.1865,0.020405
2870.0501,0.020632
2871.9138,0.020814
2873.7775,0.021073
2875.6411,0.021182
2877.5048,0.020949
2879.3685,0.020656
2881.2321,0.020671
2883.0958,0.020910
2884.9595,0.021114
2886.8232,0.021321
2888.6868,0.021355
2890.5505,0.021261
2892.4142,0.021597
2894.2778,0.021807
2896.1415,0.021844
2898.0052,0.022063
2899.8688,0.022488
2901.7325,0.022619
2903.5962,0.022463
2905.4598,0.022732
2907.3235,0.023155
2909.1872,0.023590
2911.0509,0.023968
2912.9145,0.024218
2914.7782,0.024857
2916.6419,0.025320
2918.5055,0.025506
2920.3692,0.025896
2922.2329,0.026229
2924.0965,0.026324
2925.9602,0.026562
2927.8239,0.026872
2929.6875,0.026974
2931.5512,0.026692
2933.4149,0.026399
2935.2785,0.026431
2937.1422,0.026175
2939.0059,0.025697
2940.8696,0.025435
2942.7332,0.025278
2944.5969,0.025035
2946.4606,0.025020
2948.3242,0.025053
2950.1879,0.024855
2952.0516,0.024911
2953.9152,0.025291
2955.7789,0.025500
2957.6426,0.025249
2959.5062,0.024879
2961.3699,0.024631
2963.2336,0.024458
2965.0972,0.024510
2966.9609,0.024673
2968.8246,0.024234
2970.6883,0.023735
2972.5519,0.023572
2974.4156,0.023506
2976.2793,0.023253
2978.1429,0.022929
2980.0066,0.022648
2981.8703,0.022276
2983.7339,0.022247
2985.5976,0.022149
2987.4613,0.021777
2989.3249,0.021581
2991.1886,0.021531
2993.0523,0.021606
2994.9160,0.021402
2996.7796,0.021129
2998.6433,0.021179
3000.5070,0.021386
3002.3706,0.021389
3004.2343,0.021549
3006.0980,0.021736
3007.9616,0.021862
3009.8253,0.021951
3011.6890,0.022258
3013.5526,0.022232
3015.4163,0.022238
3017.2800,0.022602
3019.1436,0.022713
3021.0073,0.022843
3022.8710,0.023367
3024.7347,0.023668
3026.5983,0.023884
3028.4620,0.024328
3030.3257,0.024715
3032.1893,0.024960
3034.0530,0.025292
3035.9167,0.025547
3037.7803,0.025621
3039.6440,0.025852
3041.5077,0.026147
3043.3713,0.026332
3045.2350,0.026597
3047.0987,0.026846
3048.9624,0.027054
3050.8260,0.027296
3052.6897,0.027829
3054.5534,0.027995
3056.4170,0.027817
3058.2807,0.028218
3060.1444,0.029083
3062.0080,0.029408
3063.8717,0.029543
3065.7354,0.029564
3067.5990,0.029404
3069.4627,0.029418
3071.3264,0.029706
3073.1900,0.030031
3075.0537,0.030193
3076.9174,0.030309
3078.7811,0.030261
3080.6447,0.030348
3082.5084,0.030597
3084.3721,0.030418
3086.2357,0.030199
3088.0994,0.030183
3089.9631,0.030282
3091.8267,0.030445
3093.6904,0.030346
3095.5541,0.030524
3097.4177,0.031062
3099.2814,0.031038
3101.1451,0.030886
3103.0087,0.030956
3104.8724,0.030851
3106.7361,0.030921
3108.5998,0.031304
3110.4634,0.031579
3112.3271,0.031886
3114.1908,0.032103
3116.0544,0.032050
3117.9181,0.031999
3119.7818,0.032191
3121.6454,0.032338
3123.5091,0.032688
3125.3728,0.033108
3127.2364,0.033290
3129.1001,0.033510
3130.9638,0.033713
3132.8275,0.034178
3134.6911,0.034739
3136.5548,0.034911
3138.4185,0.034949
3140.2821,0.035266
3142.1458,0.035970
3144.0095,0.036179
3145.8731,0.036226
3147.7368,0.036453
3149.6005,0.036821
3151.4641,0.037370
3153.3278,0.037726
3155.1915,0.038170
3157.0551,0.038442
3158.9188,0.038388
3160.7825,0.038899
3162.6462,0.039700
3164.5098,0.040131
3166.3735,0.040292
3168.2372,0.040137
3170.1008,0.040398
3171.9645,0.041247
3173.8282,0.041298
3175.6918,0.041682
3177.5555,0.042312
3179.4192,0.042549
3181.2828,0.042834
3183.1465,0.043307
3185.0102,0.043232
3186.8739,0.043370
3188.7375,0.044118
3190.6012,0.044551
3192.4649,0.044563
3194.3285,0.044955
3196.1922,0.045137
3198.0559,0.045188
3199.9195,0.045493
3201.7832,0.045752
3203.6469,0.045755
3205.5105,0.045925
3207.3742,0.046078
3209.2379,0.046183
3211.1015,0.046718
3212.9652,0.047299
3214.8289,0.047395
3216.6926,0.047371
3218.5562,0.047433
3220.4199,0.047660
3222.2836,0.047630
3224.1472,0.047665
3226.0109,0.048033
3227.8746,0.048344
3229.7382,0.048293
3231.6019,0.048626
3233.4656,0.048836
3235.3292,0.048816
3237.1929,0.049147
3239.0566,0.049706
3240.9202,0.049865
3242.7839,0.050065
3244.6476,0.050062
3246.5113,0.050157
3248.3749,0.050307
3250.2386,0.050491
3252.1023,0.050522
3253.9659,0.050684
3255.8296,0.050503
3257.6933,0.050837
3259.5569,0.050839
3261.4206,0.051060
3263.2843,0.051640
3265.1479,0.051746
3267.0116,0.051417
3268.8753,0.051503
3270.7390,0.051501
3272.6026,0.051502
3274.4663,0.051516
3276.3300,0.051366
3278.1936,0.051169
3280.0573,0.051150
3281.9210,0.051219
3283.7846,0.051146
3285.6483,0.051298
3287.5120,0.051148
3289.3756,0.050641
3291.2393,0.050632
3293.1030,0.050541
3294.9666,0.050573
3296.8303,0.050150
3298.6940,0.049904
3300.5577,0.049870
3302.4213,0.049396
3304.2850,0.048988
3306.1487,0.049308
3308.0123,0.049396
3309.8760,0.049144
3311.7397,0.048704
3313.6033,0.048068
3315.4670,0.047592
3317.3307,0.047369
3319.1943,0.046998
3321.0580,0.047191
3322.9217,0.047698
3324.7854,0.047537
3326.6490,0.046814
3328.5127,0.046643
3330.3764,0.046621
3332.2400,0.046314
3334.1037,0.046221
3335.9674,0.046202
3337.8310,0.045702
3339.6947,0.045533
3341.5584,0.045927
3343.4220,0.046091
3345.2857,0.045727
3347.1494,0.045306
3349.0130,0.044711
3350.8767,0.044301
3352.7404,0.044335
3354.6041,0.044526
3356.4677,0.044239
3358.3314,0.044195
3360.1951,0.044007
3362.0587,0.043355
3363.9224,0.042838
3365.7861,0.042710
3367.6497,0.042909
3369.5134,0.043166
3371.3771,0.042652
3373.2407,0.042353
3375.1044,0.042195
3376.9681,0.042113
3378.8317,0.042194
3380.6954,0.042197
3382.5591,0.041770
3384.4228,0.041845
3386.2864,0.041706
3388.1501,0.040922
3390.0138,0.040446
3391.8774,0.040552
3393.7411,0.040506
3395.6048,0.040052
3397.4684,0.039857
3399.3321,0.039999
3401.1958,0.039700
3403.0594,0.039547
3404.9231,0.039776
3406.7868,0.039380
3408.6505,0.038635
3410.5141,0.038593
3412.3778,0.038677
3414.2415,0.038104
3416.1051,0.037457
3417.9688,0.037661
3419.8325,0.037844
3421.6961,0.037917
3423.5598,0.037763
3425.4235,0.036804
3427.2871,0.035889
3429.1508,0.035939
3431.0145,0.036245
3432.8781,0.035933
3434.7418,0.035579
3436.6055,0.035383
3438.4692,0.034921
3440.3328,0.034706
3442.1965,0.034391
3444.0602,0.034039
3445.9238,0.033719
3447.7875,0.033777
3449.6512,0.033486
3451.5148,0.032872
3453.3785,0.032435
3455.2422,0.031813
3457.1058,0.031242
3458.9695,0.031643
3460.8332,0.032201
3462.6969,0.031759
3464.5605,0.030327
3466.4242,0.029489
3468.2879,0.029615
3470.1515,0.029508
3472.0152,0.029250
3473.8789,0.029542
3475.7425,0.029153
3477.6062,0.028550
3479.4699,0.028009
3481.3335,0.027406
3483.1972,0.027010
3485.0609,0.027036
3486.9245,0.026815
3488.7882,0.026076
3490.6519,0.025997
3492.5156,0.026057
3494.3792,0.025507
3496.2429,0.025176
3498.1066,0.024602
3499.9702,0.023810
3501.8339,0.023605
3503.6976,0.023253
3505.5612,0.023015
3507.4249,0.022854
3509.2886,0.022297
3511.1522,0.022136
3513.0159,0.022041
3514.8796,0.021823
3516.7432,0.021126
3518.6069,0.020275
3520.4706,0.020020
3522.3343,0.019832
3524.1979,0.019315
3526.0616,0.018674
3527.9253,0.018252
3529.7889,0.017997
3531.6526,0.018137
3533.5163,0.018350
3535.3799,0.017621
3537.2436,0.016979
3539.1073,0.016797
3540.9709,0.016062
3542.8346,0.014986
3544.6983,0.014639
3546.5620,0.014474
3548.4256,0.013797
3550.2893,0.013357
3552.1530,0.013667
3554.0166,0.014051
3555.8803,0.013228
3557.7440,0.011955
3559.6076,0.011845
3561.4713,0.011639
3563.3350,0.010789
3565.1986,0.010499
3567.0623,0.010268
3568.9260,0.009743
3570.7896,0.009568
3572.6533,0.009497
3574.5170,0.009199
3576.3807,0.008429
3578.2443,0.008047
3580.1080,0.008135
3581.9717,0.007775
3583.8353,0.007524
3585.6990,0.007531
3587.5627,0.007366
3589.4263,0.006850
3591.2900,0.006301
3593.1537,0.005413
3595.0173,0.004524
3596.8810,0.004289
3598.7447,0.004125
3600.6084,0.003904
3602.4720,0.003982
3604.3357,0.003610
3606.1994,0.002666
3608.0630,0.002624
3609.9267,0.002911
3611.7904,0.002388
3613.6540,0.001676
3615.5177,0.001415
3617.3814,0.001572
3619.2450,0.001681
3621.1087,0.001169
3622.9724,0.000545
3624.8360,0.000317
3626.6997,-0.000318
3628.5634,-0.000817
3630.4271,-0.000517
3632.2907,-0.000589
3634.1544,-0.000891
3636.0181,-0.001069
3637.8817,-0.001357
3639.7454,-0.001809
3641.6091,-0.002133
3643.4727,-0.002423
3645.3364,-0.002967
3647.2001,-0.003611
3649.0637,-0.003880
3650.9274,-0.003526
3652.7911,-0.003296
3654.6547,-0.003655
3656.5184,-0.003940
3658.3821,-0.003996
3660.2458,-0.004495
3662.1094,-0.004826
3663.9731,-0.004828
3665.8368,-0.005194
3667.7004,-0.005829
3669.5641,-0.005823
3671.4278,-0.004842
3673.2914,-0.005042
3675.1551,-0.006222
3677.0188,-0.005785
3678.8824,-0.004953
3680.7461,-0.005522
3682.6098,-0.005955
3684.4735,-0.006007
3686.3371,-0.006416
3688.2008,-0.006675
3690.0645,-0.006092
3691.9281,-0.005719
3693.7918,-0.005779
3695.6555,-0.005931
3697.5191,-0.006208
3699.3828,-0.006144
3701.2465,-0.006160
3703.1101,-0.006211
3704.9738,-0.006294
3706.8375,-0.006942
3708.7011,-0.007384
3710.5648,-0.007160
3712.4285,-0.006799
3714.2922,-0.006488
3716.1558,-0.006461
3718.0195,-0.006403
3719.8832,-0.006315
3721.7468,-0.006506
3723.6105,-0.006289
3725.4742,-0.005941
3727.3378,-0.006135
3729.2015,-0.006586
3731.0652,-0.006635
3732.9288,-0.006406
3734.7925,-0.006437
3736.6562,-0.006582
3738.5199,-0.006452
3740.3835,-0.006290
3742.2472,-0.006414
3744.1109,-0.007010
3745.9745,-0.006814
3747.8382,-0.006338
3749.7019,-0.006926
3751.5655,-0.007226
3753.4292,-0.006619
3755.2929,-0.006035
3757.1565,-0.006067
3759.0202,-0.006580
3760.8839,-0.006548
3762.7475,-0.006300
3764.6112,-0.006338
3766.4749,-0.006190
3768.3386,-0.006001
3770.2022,-0.006546
3772.0659,-0.006822
3773.9296,-0.006447
3775.7932,-0.006489
3777.6569,-0.006882
3779.5206,-0.006725
3781.3842,-0.006164
3783.2479,-0.006207
3785.1116,-0.006592
3786.9752,-0.006604
3788.8389,-0.006701
3790.7026,-0.006994
3792.5662,-0.006829
3794.4299,-0.006591
3796.2936,-0.006887
3798.1573,-0.006975
3800.0209,-0.006938
3801.8846,-0.006842
3803.7483,-0.006408
3805.6119,-0.006502
3807.4756,-0.006684
3809.3393,-0.006122
3811.2029,-0.006170
3813.0666,-0.006734
3814.9303,-0.007011
3816.7939,-0.007155
3818.6576,-0.006710
3820.5213,-0.006519
3822.3850,-0.006449
3824.2486,-0.006326
3826.1123,-0.006694
3827.9760,-0.006899
3829.8396,-0.006854
3831.7033,-0.006805
3833.5670,-0.006726
3835.4306,-0.006760
3837.2943,-0.006780
3839.1580,-0.006734
3841.0216,-0.006705
3842.8853,-0.006615
3844.7490,-0.006534
3846.6126,-0.006514
3848.4763,-0.006610
3850.3400,-0.006727
3852.2037,-0.006954
3854.0673,-0.007085
3855.9310,-0.006554
3857.7947,-0.006310
3859.6583,-0.006615
3861.5220,-0.006751
3863.3857,-0.006652
3865.2493,-0.006537
3867.1130,-0.006586
3868.9767,-0.006703
3870.8403,-0.006492
3872.7040,-0.006029
3874.5677,-0.006459
3876.4314,-0.006554
3878.2950,-0.006344
3880.1587,-0.006378
3882.0224,-0.006507
3883.8860,-0.006696
3885.7497,-0.006645
3887.6134,-0.006273
3889.4770,-0.006235
3891.3407,-0.006271
3893.2044,-0.006189
3895.0680,-0.006419
3896.9317,-0.006597
3898.7954,-0.006535
3900.6590,-0.006270
3902.5227,-0.006313
3904.3864,-0.006231
3906.2501,-0.006282
3908.1137,-0.006338
3909.9774,-0.006222
3911.8411,-0.006174
3913.7047,-0.006177
3915.5684,-0.006461
3917.4321,-0.006649
3919.2957,-0.006606
3921.1594,-0.006599
3923.0231,-0.006678
3924.8867,-0.006656
3926.7504,-0.006536
3928.6141,-0.006276
3930.4777,-0.006207
3932.3414,-0.006142
3934.2051,-0.006014
3936.0688,-0.006239
3937.9324,-0.006780
3939.7961,-0.006551
3941.6598,-0.006393
3943.5234,-0.006632
3945.3871,-0.006572
3947.2508,-0.006435
3949.1144,-0.006647
3950.9781,-0.006667
3952.8418,-0.006488
3954.7054,-0.006535
3956.5691,-0.006809
3958.4328,-0.006406
3960.2965,-0.005952
3962.1601,-0.005809
3964.0238,-0.006036
3965.8875,-0.006163
3967.7511,-0.006049
3969.6148,-0.006418
3971.4785,-0.006616
3973.3421,-0.006192
3975.2058,-0.006339
3977.0695,-0.006356
3978.9331,-0.006191
3980.7968,-0.006208
3982.6605,-0.006376
3984.5241,-0.006261
3986.3878,-0.006229
3988.2515,-0.006388
3990.1152,-0.006438
3991.9788,-0.006193
3993.8425,-0.006210
3995.7062,-0.006335
3997.5698,-0.006110
3999.4335,-0.005781
