Wavenumber,Intensity
650.4205,0.070314
652.2841,0.068802
654.1478,0.066527
656.0115,0.063903
657.8751,0.064710
659.7388,0.067125
661.6025,0.066193
663.4661,0.063572
665.3298,0.062343
667.1935,0.063773
669.0571,0.065579
670.9208,0.063004
672.7845,0.062490
674.6481,0.063542
676.5118,0.061747
678.3755,0.059938
680.2392,0.060489
682.1028,0.059921
683.9665,0.059412
685.8302,0.059491
687.6938,0.058532
689.5575,0.058435
691.4212,0.058450
693.2848,0.057766
695.1485,0.056691
697.0122,0.055948
698.8758,0.056600
700.7395,0.056483
702.6032,0.055838
704.4669,0.055355
706.3305,0.054797
708.1942,0.054441
710.0579,0.054039
711.9215,0.053513
713.7852,0.052945
715.6489,0.052494
717.5125,0.052238
719.3762,0.051728
721.2399,0.050568
723.1035,0.050030
724.9672,0.050134
726.8309,0.049333
728.6945,0.048526
730.5582,0.048208
732.4219,0.047767
734.2856,0.047580
736.1492,0.047539
738.0129,0.047254
739.8766,0.046944
741.7402,0.046624
743.6039,0.046271
745.4676,0.046014
747.3312,0.045691
749.1949,0.045211
751.0586,0.044223
752.9222,0.043722
754.7859,0.044035
756.6496,0.043828
758.5132,0.043593
760.3769,0.043217
762.2406,0.042382
764.1043,0.042442
765.9679,0.042873
767.8316,0.042599
769.6953,0.042161
771.5589,0.041590
773.4226,0.041050
775.2863,0.040895
777.1499,0.040333
779.0136,0.040014
780.8773,0.039852
782.7409,0.039075
784.6046,0.038375
786.4683,0.037848
788.3320,0.037268
790.1956,0.036796
792.0593,0.036759
793.9230,0.036934
795.7866,0.036728
797.6503,0.036208
799.5140,0.035569
801.3776,0.035147
803.2413,0.035230
805.1050,0.035403
806.9686,0.035071
808.8323,0.034805
810.6960,0.034652
812.5596,0.034507
814.4233,0.034498
816.2870,0.034459
818.1507,0.034267
820.0143,0.033971
821.8780,0.033705
823.7417,0.033271
825.6053,0.032628
827.4690,0.031922
829.3327,0.031201
831.1963,0.030834
833.0600,0.030333
834.9237,0.029837
836.7873,0.029830
838.6510,0.029647
840.5147,0.029123
842.3784,0.028689
844.2420,0.028347
846.1057,0.028173
847.9694,0.028194
849.8330,0.027995
851.6967,0.027632
853.5604,0.027336
855.4240,0.027173
857.2877,0.027168
859.1514,0.027110
861.0150,0.026783
862.8787,0.026556
864.7424,0.026672
866.6060,0.026729
868.4697,0.026672
870.3334,0.026775
872.1971,0.026918
874.0607,0.026714
875.9244,0.026333
877.7881,0.026019
879.6517,0.025619
881.5154,0.025186
883.3791,0.024769
885.2427,0.024289
887.1064,0.023828
888.9701,0.023699
890.8337,0.023656
892.6974,0.023387
894.5611,0.023264
896.4247,0.023094
898.2884,0.022821
900.1521,0.022702
902.0158,0.022529
903.8794,0.022083
905.7431,0.021702
907.6068,0.021554
909.4704,0.021527
911.3341,0.021698
913.1978,0.021860
915.0614,0.021894
916.9251,0.022036
918.7888,0.022155
920.6524,0.022193
922.5161,0.022291
924.3798,0.022528
926.2435,0.022660
928.1071,0.022576
929.9708,0.022499
931.8345,0.022513
933.6981,0.022578
935.5618,0.022669
937.4255,0.022837
939.2891,0.023128
941.1528,0.023460
943.0165,0.023964
944.8801,0.024541
946.7438,0.025072
948.6075,0.025365
950.4711,0.025549
952.3348,0.025694
954.1985,0.025813
956.0622,0.026203
957.9258,0.026836
959.7895,0.027589
961.6532,0.028574
963.5168,0.029691
965.3805,0.030806
967.2442,0.031889
969.1078,0.032631
970.9715,0.033114
972.8352,0.033652
974.6988,0.034184
976.5625,0.034828
978.4262,0.035774
980.2899,0.036851
982.1535,0.037948
984.0172,0.039056
985.8809,0.039952
987.7445,0.040687
989.6082,0.041258
991.4719,0.041645
993.3355,0.042113
995.1992,0.042634
997.0629,0.043061
998.9265,0.043439
1000.7902,0.043879
1002.6539,0.044355
1004.5175,0.044843
1006.3812,0.045638
1008.2449,0.046756
1010.1086,0.048044
1011.9722,0.049510
1013.8359,0.051155
1015.6996,0.052871
1017.5632,0.054333
1019.4269,0.055548
1021.2906,0.056647
1023.1542,0.057417
1025.0179,0.057901
1026.8816,0.058426
1028.7452,0.059195
1030.6089,0.060014
1032.4726,0.060638
1034.3362,0.061031
1036.1999,0.061235
1038.0636,0.061400
1039.9273,0.061538
1041.7909,0.061651
1043.6546,0.061732
1045.5183,0.061726
1047.3819,0.061830
1049.2456,0.062052
1051.1093,0.062354
1052.9729,0.062756
1054.8366,0.063120
1056.7003,0.063537
1058.5639,0.064038
1060.4276,0.064432
1062.2913,0.064743
1064.1550,0.065048
1066.0186,0.065310
1067.8823,0.065518
1069.7460,0.065739
1071.6096,0.065864
1073.4733,0.065756
1075.3370,0.065462
1077.2006,0.064883
1079.0643,0.063995
1080.9280,0.062693
1082.7916,0.061031
1084.6553,0.059258
1086.5190,0.057434
1088.3826,0.055731
1090.2463,0.054154
1092.1100,0.052647
1093.9737,0.051378
1095.8373,0.050326
1097.7010,0.049201
1099.5647,0.048136
1101.4283,0.047166
1103.2920,0.046190
1105.1557,0.045331
1107.0193,0.044625
1108.8830,0.043954
1110.7467,0.043358
1112.6103,0.042812
1114.4740,0.042221
1116.3377,0.041608
1118.2014,0.040866
1120.0650,0.039980
1121.9287,0.039124
1123.7924,0.038310
1125.6560,0.037450
1127.5197,0.036491
1129.3834,0.035508
1131.2470,0.034523
1133.1107,0.033476
1134.9744,0.032421
1136.8380,0.031432
1138.7017,0.030515
1140.5654,0.029657
1142.4290,0.028891
1144.2927,0.028296
1146.1564,0.027908
1148.0201,0.027632
1149.8837,0.027375
1151.7474,0.027140
1153.6111,0.026963
1155.4747,0.026705
1157.3384,0.026376
1159.2021,0.026089
1161.0657,0.025765
1162.9294,0.025386
1164.7931,0.024873
1166.6567,0.024305
1168.5204,0.023648
1170.3841,0.022712
1172.2477,0.021651
1174.1114,0.020624
1175.9751,0.019492
1177.8388,0.018407
1179.7024,0.017648
1181.5661,0.017164
1183.4298,0.016771
1185.2934,0.016541
1187.1571,0.016589
1189.0208,0.016709
1190.8844,0.016778
1192.7481,0.016941
1194.6118,0.017216
1196.4754,0.017584
1198.3391,0.017972
1200.2028,0.018454
1202.0665,0.018966
1203.9301,0.019410
1205.7938,0.019857
1207.6575,0.020275
1209.5211,0.020595
1211.3848,0.020881
1213.2485,0.021255
1215.1121,0.021620
1216.9758,0.022073
1218.8395,0.022538
1220.7031,0.023004
1222.5668,0.023471
1224.4305,0.023933
1226.2941,0.024346
1228.1578,0.024610
1230.0215,0.024906
1231.8852,0.025204
1233.7488,0.025382
1235.6125,0.025480
1237.4762,0.025494
1239.3398,0.025508
1241.2035,0.025556
1243.0672,0.025581
1244.9308,0.025424
1246.7945,0.025105
1248.6582,0.024885
1250.5218,0.024809
1252.3855,0.024699
1254.2492,0.024472
1256.1129,0.024135
1257.9765,0.023801
1259.8402,0.023591
1261.7039,0.023422
1263.5675,0.023250
1265.4312,0.023163
1267.2949,0.023008
1269.1585,0.022825
1271.0222,0.022691
1272.8859,0.022537
1274.7495,0.022449
1276.6132,0.022414
1278.4769,0.022424
1280.3405,0.022371
1282.2042,0.022297
1284.0679,0.022270
1285.9316,0.022334
1287.7952,0.022431
1289.6589,0.022578
1291.5226,0.022739
1293.3862,0.022997
1295.2499,0.023239
1297.1136,0.023498
1298.9772,0.023742
1300.8409,0.023905
1302.7046,0.024039
1304.5682,0.024238
1306.4319,0.024410
1308.2956,0.024664
1310.1592,0.024903
1312.0229,0.025178
1313.8866,0.025461
1315.7503,0.025522
1317.6139,0.025516
1319.4776,0.025602
1321.3413,0.025565
1323.2049,0.025473
1325.0686,0.025247
1326.9323,0.025052
1328.7959,0.025040
1330.6596,0.024957
1332.5233,0.024788
1334.3869,0.024870
1336.2506,0.025186
1338.1143,0.025575
1339.9780,0.025895
1341.8416,0.025896
1343.7053,0.025820
1345.5690,0.025891
1347.4326,0.025863
1349.2963,0.025754
1351.1600,0.025711
1353.0236,0.025716
1354.8873,0.025709
1356.7510,0.025700
1358.6146,0.025740
1360.4783,0.026110
1362.3420,0.026847
1364.2056,0.027580
1366.0693,0.028061
1367.9330,0.028705
1369.7967,0.029484
1371.6603,0.030187
1373.5240,0.031144
1375.3877,0.031934
1377.2513,0.032204
1379.1150,0.032502
1380.9787,0.032698
1382.8423,0.032825
1384.7060,0.033137
1386.5697,0.033929
1388.4333,0.034559
1390.2970,0.034509
1392.1607,0.034817
1394.0244,0.035858
1395.8880,0.036905
1397.7517,0.037551
1399.6154,0.038238
1401.4790,0.038492
1403.3427,0.039106
1405.2064,0.039710
1407.0700,0.039533
1408.9337,0.039143
1410.7974,0.038784
1412.6610,0.038115
1414.5247,0.037260
1416.3884,0.036435
1418.2520,0.036218
1420.1157,0.035541
1421.9794,0.034057
1423.8431,0.033175
1425.7067,0.032313
1427.5704,0.031402
1429.4341,0.030960
1431.2977,0.030486
1433.1614,0.029984
1435.0251,0.030144
1436.8887,0.031046
1438.7524,0.030712
1440.6161,0.030059
1442.4797,0.029911
1444.3434,0.029745
1446.2071,0.029813
1448.0707,0.029914
1449.9344,0.029485
1451.7981,0.028640
1453.6618,0.028140
1455.5254,0.028584
1457.3891,0.029723
1459.2528,0.028571
1461.1164,0.027285
1462.9801,0.026945
1464.8438,0.027034
1466.7074,0.026441
1468.5711,0.025530
1470.4348,0.025048
1472.2984,0.025274
1474.1621,0.025134
1476.0258,0.024522
1477.8895,0.023941
1479.7531,0.023623
1481.6168,0.023776
1483.4805,0.023793
1485.3441,0.023871
1487.2078,0.024756
1489.0715,0.026237
1490.9351,0.027298
1492.7988,0.027494
1494.6625,0.028308
1496.5261,0.030400
1498.3898,0.032025
1500.2535,0.032534
1502.1171,0.032668
1503.9808,0.033344
1505.8445,0.036707
1507.7082,0.041314
1509.5718,0.041450
1511.4355,0.041649
1513.2992,0.042719
1515.1628,0.043955
1517.0265,0.045524
1518.8902,0.046395
1520.7538,0.048090
1522.6175,0.050081
1524.4812,0.050587
1526.3448,0.051742
1528.2085,0.052612
1530.0722,0.053012
1531.9359,0.053996
1533.7995,0.055784
1535.6632,0.055593
1537.5269,0.055531
1539.3905,0.058400
1541.2542,0.060925
1543.1179,0.060656
1544.9815,0.060278
1546.8452,0.059513
1548.7089,0.058962
1550.5725,0.058342
1552.4362,0.057143
1554.2999,0.056127
1556.1635,0.055239
1558.0272,0.056650
1559.8909,0.057196
1561.7546,0.053294
1563.6182,0.050759
1565.4819,0.049247
1567.3456,0.047995
1569.2092,0.047054
1571.0729,0.045607
1572.9366,0.043736
1574.8002,0.042862
1576.6639,0.042690
1578.5276,0.041305
1580.3912,0.039891
1582.2549,0.039038
1584.1186,0.038237
1585.9822,0.037679
1587.8459,0.037282
1589.7096,0.037133
1591.5733,0.037194
1593.4369,0.037322
1595.3006,0.037666
1597.1643,0.038121
1599.0279,0.038528
1600.8916,0.039204
1602.7553,0.040319
1604.6189,0.041451
1606.4826,0.042572
1608.3463,0.044050
1610.2099,0.045570
1612.0736,0.046696
1613.9373,0.047745
1615.8010,0.050319
1617.6646,0.053162
1619.5283,0.053798
1621.3920,0.054683
1623.2556,0.057173
1625.1193,0.058916
1626.9830,0.060112
1628.8466,0.061360
1630.7103,0.061535
1632.5740,0.061445
1634.4376,0.062746
1636.3013,0.064824
1638.1650,0.064160
1640.0286,0.062892
1641.8923,0.061804
1643.7560,0.060987
1645.6197,0.061144
1647.4833,0.060831
1649.3470,0.058837
1651.2107,0.057899
1653.0743,0.059124
1654.9380,0.056589
1656.8017,0.053447
1658.6653,0.051170
1660.5290,0.049441
1662.3927,0.047727
1664.2563,0.045438
1666.1200,0.043214
1667.9837,0.041506
1669.8474,0.039980
1671.7110,0.037869
1673.5747,0.035849
1675.4384,0.034200
1677.3020,0.031941
1679.1657,0.029662
1681.0294,0.027903
1682.8930,0.026593
1684.7567,0.024929
1686.6204,0.022653
1688.4840,0.020391
1690.3477,0.018238
1692.2114,0.016389
1694.0750,0.014626
1695.9387,0.012818
1697.8024,0.011374
1699.6661,0.010029
1701.5297,0.008663
1703.3934,0.007130
1705.2571,0.005871
1707.1207,0.004986
1708.9844,0.004264
1710.8481,0.003404
1712.7117,0.002825
1714.5754,0.002473
1716.4391,0.002136
1718.3027,0.001686
1720.1664,0.001526
1722.0301,0.001123
1723.8937,0.000519
1725.7574,-0.000162
1727.6211,-0.000468
1729.4848,-0.000356
1731.3484,-0.000381
1733.2121,-0.000888
1735.0758,-0.000761
1736.9394,-0.000838
1738.8031,-0.001235
1740.6668,-0.001258
1742.5304,-0.001306
1744.3941,-0.001523
1746.2578,-0.001649
1748.1214,-0.001900
1749.9851,-0.002162
1751.8488,-0.002156
1753.7125,-0.002053
1755.5761,-0.002299
1757.4398,-0.002419
1759.3035,-0.002469
1761.1671,-0.002646
1763.0308,-0.002633
1764.8945,-0.002760
1766.7581,-0.002980
1768.6218,-0.003043
1770.4855,-0.003231
1772.3491,-0.003030
1774.2128,-0.002847
1776.0765,-0.002882
1777.9401,-0.002857
1779.8038,-0.003006
1781.6675,-0.003235
1783.5312,-0.003338
1785.3948,-0.003316
1787.2585,-0.003159
1789.1222,-0.003096
1790.9858,-0.003141
1792.8495,-0.003107
1794.7132,-0.003104
1796.5768,-0.003181
1798.4405,-0.003125
1800.3042,-0.003201
1802.1678,-0.003161
1804.0315,-0.003126
1805.8952,-0.003376
1807.7589,-0.003459
1809.6225,-0.003321
1811.4862,-0.003457
1813.3499,-0.003520
1815.2135,-0.003707
1817.0772,-0.003596
1818.9409,-0.003251
1820.8045,-0.003209
1822.6682,-0.003207
1824.5319,-0.003061
1826.3955,-0.002863
1828.2592,-0.002825
1830.1229,-0.002979
1831.9865,-0.003052
1833.8502,-0.003094
1835.7139,-0.003024
1837.5776,-0.003104
1839.4412,-0.003338
1841.3049,-0.003584
1843.1686,-0.003410
1845.0322,-0.002824
1846.8959,-0.002803
1848.7596,-0.002898
1850.6232,-0.003115
1852.4869,-0.003395
1854.3506,-0.003518
1856.2142,-0.003399
1858.0779,-0.003180
1859.9416,-0.003142
1861.8052,-0.003209
1863.6689,-0.003245
1865.5326,-0.003092
1867.3963,-0.002919
1869.2599,-0.002686
1871.1236,-0.002534
1872.9873,-0.002727
1874.8509,-0.002738
1876.7146,-0.002532
1878.5783,-0.002538
1880.4419,-0.002931
1882.3056,-0.003122
1884.1693,-0.003166
1886.0329,-0.003115
1887.8966,-0.002855
1889.7603,-0.002788
1891.6240,-0.002885
1893.4876,-0.003035
1895.3513,-0.002835
1897.2150,-0.002313
1899.0786,-0.002082
1900.9423,-0.002440
1902.8060,-0.002896
1904.6696,-0.002564
1906.5333,-0.002225
1908.3970,-0.002029
1910.2606,-0.001712
1912.1243,-0.001867
1913.9880,-0.001990
1915.8516,-0.002585
1917.7153,-0.003083
1919.5790,-0.002594
1921.4427,-0.002161
1923.3063,-0.002563
1925.1700,-0.002670
1927.0337,-0.002690
1928.8973,-0.003043
1930.7610,-0.003006
1932.6247,-0.002247
1934.4883,-0.001986
1936.3520,-0.002315
1938.2157,-0.001637
1940.0793,-0.001146
1941.9430,-0.001980
1943.8067,-0.002401
1945.6704,-0.001710
1947.5340,-0.001422
1949.3977,-0.001446
1951.2614,-0.001212
1953.1250,-0.001186
1954.9887,-0.001413
1956.8524,-0.002441
1958.7160,-0.002245
1960.5797,-0.000253
1962.4434,0.000044
1964.3070,-0.000734
1966.1707,-0.001455
1968.0344,-0.001883
1969.8980,-0.001467
1971.7617,-0.001056
1973.6254,-0.000270
1975.4891,0.000827
1977.3527,0.001422
1979.2164,0.001053
1981.0801,0.001103
1982.9437,0.001526
1984.8074,0.001233
1986.6711,0.000425
1988.5347,0.000393
1990.3984,0.000306
1992.2621,0.000346
1994.1257,-0.000022
1995.9894,-0.000600
1997.8531,-0.000442
1999.7167,0.000153
2001.5804,0.001087
2003.4441,0.000819
2005.3078,0.000118
2007.1714,0.000804
2009.0351,0.000693
2010.8988,-0.000092
2012.7624,-0.000011
2014.6261,0.000728
2016.4898,0.001042
2018.3534,0.001052
2020.2171,0.001583
2022.0808,0.002497
2023.9444,0.002637
2025.8081,0.002289
2027.6718,0.001756
2029.5355,0.000785
2031.3991,0.000940
2033.2628,0.003229
2035.1265,0.004302
2036.9901,0.003364
2038.8538,0.002492
2040.7175,0.002434
2042.5811,0.002983
2044.4448,0.002964
2046.3085,0.003053
2048.1721,0.003842
2050.0358,0.004646
2051.8995,0.004759
2053.7631,0.003616
2055.6268,0.003329
2057.4905,0.004005
2059.3542,0.004336
2061.2178,0.004391
2063.0815,0.004255
2064.9452,0.004157
2066.8088,0.004061
2068.6725,0.003767
2070.5362,0.003721
2072.3998,0.003706
2074.2635,0.002964
2076.1272,0.002081
2077.9908,0.001882
2079.8545,0.002402
2081.7182,0.002653
2083.5819,0.002065
2085.4455,0.001459
2087.3092,0.001071
2089.1729,0.000713
2091.0365,0.000423
2092.9002,0.000085
2094.7639,0.000254
2096.6275,0.000661
2098.4912,0.000684
2100.3549,0.001007
2102.2185,0.001448
2104.0822,0.001396
2105.9459,0.000810
2107.8095,0.000438
2109.6732,0.000819
2111.5369,0.000978
2113.4006,0.000472
2115.2642,-0.000283
2117.1279,0.000018
2118.9916,0.000702
2120.8552,0.000366
2122.7189,-0.000135
2124.5826,-0.000101
2126.4462,0.000003
2128.3099,-0.000376
2130.1736,-0.001037
2132.0372,-0.001241
2133.9009,-0.000680
2135.7646,0.000200
2137.6282,0.000901
2139.4919,0.001173
2141.3556,0.000851
2143.2193,0.000365
2145.0829,0.000434
2146.9466,0.000355
2148.8103,0.000358
2150.6739,0.001306
2152.5376,0.001978
2154.4013,0.001491
2156.2649,0.000510
2158.1286,0.001098
2159.9923,0.003244
2161.8559,0.004513
2163.7196,0.004634
2165.5833,0.004563
2167.4470,0.004494
2169.3106,0.003667
2171.1743,0.002719
2173.0380,0.001623
2174.9016,0.000964
2176.7653,0.001381
2178.6290,0.002190
2180.4926,0.003015
2182.3563,0.003149
2184.2200,0.003133
2186.0836,0.003829
2187.9473,0.004045
2189.8110,0.003252
2191.6746,0.002382
2193.5383,0.002112
2195.4020,0.002541
2197.2657,0.002843
2199.1293,0.002752
2200.9930,0.002224
2202.8567,0.001914
2204.7203,0.002001
2206.5840,0.002000
2208.4477,0.002414
2210.3113,0.002782
2212.1750,0.002762
2214.0387,0.002893
2215.9023,0.002352
2217.7660,0.001507
2219.6297,0.001804
2221.4934,0.001939
2223.3570,0.001072
2225.2207,0.000907
2227.0844,0.001389
2228.9480,0.001728
2230.8117,0.001930
2232.6754,0.001481
2234.5390,0.001050
2236.4027,0.001103
2238.2664,0.001193
2240.1300,0.001537
2241.9937,0.001919
2243.8574,0.001827
2245.7210,0.001379
2247.5847,0.000951
2249.4484,0.000736
2251.3121,0.000817
2253.1757,0.000836
2255.0394,0.001061
2256.9031,0.001386
2258.7667,0.001548
2260.6304,0.001237
2262.4941,0.000180
2264.3577,-0.000192
2266.2214,0.000582
2268.0851,0.001449
2269.9487,0.001498
2271.8124,0.000416
2273.6761,0.000047
2275.5397,0.000953
2277.4034,0.001390
2279.2671,0.001164
2281.1308,0.001057
2282.9944,0.001179
2284.8581,0.001189
2286.7218,0.001078
2288.5854,0.000682
2290.4491,0.000245
2292.3128,0.000303
2294.1764,0.000328
2296.0401,-0.000171
2297.9038,-0.000343
2299.7674,-0.000119
2301.6311,-0.000018
2303.4948,0.000082
2305.3585,0.000166
2307.2221,-0.000075
2309.0858,-0.000227
2310.9495,-0.000159
2312.8131,-0.000207
2314.6768,-0.000226
2316.5405,-0.000114
2318.4041,0.000124
2320.2678,0.000416
2322.1315,0.000474
2323.9951,0.000001
2325.8588,-0.000687
2327.7225,-0.001070
2329.5861,-0.001204
2331.4498,-0.001258
2333.3135,-0.001102
2335.1772,-0.001187
2337.0408,-0.001365
2338.9045,-0.001127
2340.7682,-0.000703
2342.6318,-0.000545
2344.4955,-0.001057
2346.3592,-0.001363
2348.2228,-0.001490
2350.0865,-0.001867
2351.9502,-0.001916
2353.8138,-0.001592
2355.6775,-0.001530
2357.5412,-0.001278
2359.4049,-0.000829
2361.2685,-0.000703
2363.1322,-0.000446
2364.9959,-0.000802
2366.8595,-0.001443
2368.7232,-0.001432
2370.5869,-0.001011
2372.4505,-0.000755
2374.3142,-0.000687
2376.1779,-0.000948
2378.0415,-0.001498
2379.9052,-0.001801
2381.7689,-0.001613
2383.6325,-0.001541
2385.4962,-0.001800
2387.3599,-0.001966
2389.2236,-0.001851
2391.0872,-0.001693
2392.9509,-0.001660
2394.8146,-0.001587
2396.6782,-0.001659
2398.5419,-0.001886
2400.4056,-0.001987
2402.2692,-0.001933
2404.1329,-0.001690
2405.9966,-0.001389
2407.8602,-0.001244
2409.7239,-0.001268
2411.5876,-0.001341
2413.4512,-0.001304
2415.3149,-0.001314
2417.1786,-0.001110
2419.0423,-0.000863
2420.9059,-0.000782
2422.7696,-0.000788
2424.6333,-0.000992
2426.4969,-0.001142
2428.3606,-0.001187
2430.2243,-0.001219
2432.0879,-0.001159
2433.9516,-0.001085
2435.8153,-0.001024
2437.6789,-0.001047
2439.5426,-0.001084
2441.4063,-0.000914
2443.2700,-0.000840
2445.1336,-0.000984
2446.9973,-0.001152
2448.8610,-0.000859
2450.7246,-0.000535
2452.5883,-0.000458
2454.4520,-0.000441
2456.3156,-0.000452
2458.1793,-0.000653
2460.0430,-0.000864
2461.9066,-0.000710
2463.7703,-0.000840
2465.6340,-0.001079
2467.4976,-0.000803
2469.3613,-0.000888
2471.2250,-0.001122
2473.0887,-0.000930
2474.9523,-0.000811
2476.8160,-0.000851
2478.6797,-0.000776
2480.5433,-0.000795
2482.4070,-0.000574
2484.2707,-0.000454
2486.1343,-0.000437
2487.9980,-0.000492
2489.8617,-0.000627
2491.7253,-0.000704
2493.5890,-0.000851
2495.4527,-0.000888
2497.3164,-0.000747
2499.1800,-0.000381
2501.0437,-0.000281
2502.9074,-0.000323
2504.7710,-0.000574
2506.6347,-0.000678
2508.4984,-0.000507
2510.3620,-0.000412
2512.2257,-0.000237
2514.0894,-0.000064
2515.9530,-0.000452
2517.8167,-0.000841
2519.6804,-0.000648
2521.5440,-0.000388
2523.4077,-0.000585
2525.2714,-0.000864
2527.1351,-0.000534
2528.9987,0.000024
2530.8624,0.000124
2532.7261,-0.000042
2534.5897,-0.000378
2536.4534,-0.000547
2538.3171,-0.000431
2540.1807,-0.000015
2542.0444,0.000327
2543.9081,0.000234
2545.7717,-0.000081
2547.6354,-0.000540
2549.4991,-0.000632
2551.3627,-0.000076
2553.2264,0.000145
2555.0901,-0.000255
2556.9538,-0.000483
2558.8174,-0.000280
2560.6811,-0.000052
2562.5448,0.000036
2564.4084,0.000065
2566.2721,0.000189
2568.1358,0.000282
2569.9994,-0.000051
2571.8631,-0.000086
2573.7268,0.000082
2575.5904,-0.000033
2577.4541,-0.000268
2579.3178,-0.000248
2581.1815,-0.000072
2583.0451,0.000146
2584.9088,0.000517
2586.7725,0.000529
2588.6361,0.000342
2590.4998,0.000316
2592.3635,0.000270
2594.2271,0.000280
2596.0908,0.000385
2597.9545,0.000672
2599.8181,0.000756
2601.6818,0.000653
2603.5455,0.000545
2605.4091,0.000534
2607.2728,0.000822
2609.1365,0.000901
2611.0002,0.000992
2612.8638,0.000876
2614.7275,0.000564
2616.5912,0.000538
2618.4548,0.000792
2620.3185,0.000924
2622.1822,0.000899
2624.0458,0.001233
2625.9095,0.001555
2627.7732,0.001218
2629.6368,0.000916
2631.5005,0.001208
2633.3642,0.001153
2635.2279,0.000983
2637.0915,0.001134
2638.9552,0.001277
2640.8189,0.001298
2642.6825,0.001376
2644.5462,0.001525
2646.4099,0.001446
2648.2735,0.001339
2650.1372,0.001356
2652.0009,0.001431
2653.8645,0.001398
2655.7282,0.001344
2657.5919,0.001373
2659.4555,0.001246
2661.3192,0.001179
2663.1829,0.001258
2665.0466,0.001270
2666.9102,0.001104
2668.7739,0.001234
2670.6376,0.001354
2672.5012,0.001337
2674.3649,0.001516
2676.2286,0.001690
2678.0922,0.001802
2679.9559,0.001852
2681.8196,0.001646
2683.6832,0.001531
2685.5469,0.001587
2687.4106,0.001664
2689.2742,0.001870
2691.1379,0.001996
2693.0016,0.001936
2694.8653,0.001852
2696.7289,0.002018
2698.5926,0.002267
2700.4563,0.002386
2702.3199,0.002397
2704.1836,0.002330
2706.0473,0.002365
2707.9109,0.002470
2709.7746,0.002418
2711.6383,0.002585
2713.5019,0.002920
2715.3656,0.002962
2717.2293,0.002824
2719.0930,0.002778
2720.9566,0.002844
2722.8203,0.002947
2724.6840,0.003101
2726.5476,0.003133
2728.4113,0.003338
2730.2750,0.003604
2732.1386,0.003678
2734.0023,0.003556
2735.8660,0.003476
2737.7296,0.003693
2739.5933,0.003830
2741.4570,0.003721
2743.3206,0.003722
2745.1843,0.003897
2747.0480,0.004011
2748.9117,0.004133
2750.7753,0.004179
2752.6390,0.004249
2754.5027,0.004391
2756.3663,0.004456
2758.2300,0.004595
2760.0937,0.004753
2761.9573,0.004719
2763.8210,0.004771
2765.6847,0.004973
2767.5483,0.005166
2769.4120,0.005242
2771.2757,0.005318
2773.1394,0.005378
2775.0030,0.005537
2776.8667,0.005573
2778.7304,0.005661
2780.5940,0.005739
2782.4577,0.005818
2784.3214,0.006034
2786.1850,0.006217
2788.0487,0.006303
2789.9124,0.006441
2791.7760,0.006504
2793.6397,0.006492
2795.5034,0.006760
2797.3670,0.007067
2799.2307,0.007188
2801.0944,0.007129
2802.9581,0.007017
2804.8217,0.007118
2806.6854,0.007521
2808.5491,0.007617
2810.4127,0.007626
2812.2764,0.007899
2814.1401,0.008220
2816.0037,0.008434
2817.8674,0.008332
2819.7311,0.008439
2821.5947,0.008689
2823.4584,0.008773
2825.3221,0.008741
2827.1857,0.009043
2829.0494,0.009370
2830.9131,0.009407
2832.7768,0.009727
2834.6404,0.010186
2836.5041,0.010214
2838.3678,0.010093
2840.2314,0.010381
2842.0951,0.010794
2843.9588,0.011127
2845.8224,0.011554
2847.6861,0.012172
2849.5498,0.012511
2851.4134,0.012577
2853.2771,0.012670
2855.1408,0.012743
2857.0045,0.012840
2858.8681,0.013073
2860.7318,0.013317
2862.5955,0.013498
2864.4591,0.013559
2866.3228,0.013811
2868.1865,0.014132
2870.0501,0.014417
2871.9138,0.014479
2873.7775,0.014481
2875.6411,0.014649
2877.5048,0.014745
2879.3685,0.014994
2881.2321,0.015370
2883.0958,0.015498
2884.9595,0.015524
2886.8232,0.015650
2888.6868,0.015853
2890.5505,0.016040
2892.4142,0.016033
2894.2778,0.015910
2896.1415,0.016048
2898.0052,0.016501
2899.8688,0.016720
2901.7325,0.016735
2903.5962,0.016887
2905.4598,0.016965
2907.3235,0.017270
2909.1872,0.017764
2911.0509,0.018283
2912.9145,0.018707
2914.7782,0.018885
2916.6419,0.019131
2918.5055,0.019637
2920.3692,0.019960
2922.2329,0.020167
2924.0965,0.020457
2925.9602,0.020456
2927.8239,0.020343
2929.6875,0.020738
2931.5512,0.021074
2933.4149,0.020667
2935.2785,0.020532
2937.1422,0.020629
2939.0059,0.020510
2940.8696,0.020273
2942.7332,0.020288
2944.5969,0.020543
2946.4606,0.020697
2948.3242,0.020559
2950.1879,0.020550
2952.0516,0.020710
2953.9152,0.020718
2955.7789,0.020859
2957.6426,0.021017
2959.5062,0.021116
2961.3699,0.021139
2963.2336,0.021047
2965.0972,0.020891
2966.9609,0.020755
2968.8246,0.020996
2970.6883,0.020915
2972.5519,0.020498
2974.4156,0.020298
2976.2793,0.020068
2978.1429,0.020158
2980.0066,0.020588
2981.8703,0.020520
2983.7339,0.020010
2985.5976,0.020037
2987.4613,0.020040
2989.3249,0.019677
2991.1886,0.019529
2993.0523,0.019755
2994.9160,0.019966
2996.7796,0.019870
2998.6433,0.019920
3000.5070,0.020162
3002.3706,0.020376
3004.2343,0.020582
3006.0980,0.020346
3007.9616,0.020319
3009.8253,0.020707
3011.6890,0.021036
3013.5526,0.021220
3015.4163,0.021071
3017.2800,0.021216
3019.1436,0.021749
3021.0073,0.021998
3022.8710,0.022358
3024.7347,0.022621
3026.5983,0.022656
3028.4620,0.022905
3030.3257,0.023280
3032.1893,0.023380
3034.0530,0.023718
3035.9167,0.023975
3037.7803,0.024469
3039.6440,0.024823
3041.5077,0.024622
3043.3713,0.024575
3045.2350,0.025029
3047.0987,0.025407
3048.9624,0.025907
3050.8260,0.026486
3052.6897,0.026433
3054.5534,0.026360
3056.4170,0.026724
3058.2807,0.027231
3060.1444,0.027426
3062.0080,0.027521
3063.8717,0.027975
3065.7354,0.028314
3067.5990,0.028211
3069.4627,0.028311
3071.3264,0.028538
3073.1900,0.028628
3075.0537,0.029019
3076.9174,0.029362
3078.7811,0.029586
3080.6447,0.029341
3082.5084,0.029392
3084.3721,0.029705
3086.2357,0.029838
3088.0994,0.029965
3089.9631,0.030257
3091.8267,0.030192
3093.6904,0.030056
3095.5541,0.030409
3097.4177,0.031000
3099.2814,0.031131
3101.1451,0.030945
3103.0087,0.030987
3104.8724,0.031184
3106.7361,0.031331
3108.5998,0.031667
3110.4634,0.031643
3112.3271,0.031789
3114.1908,0.032150
3116.0544,0.032528
3117.9181,0.032368
3119.7818,0.032372
3121.6454,0.032767
3123.5091,0.033044
3125.3728,0.033258
3127.2364,0.033728
3129.1001,0.033982
3130.9638,0.034061
3132.8275,0.034231
3134.6911,0.034694
3136.5548,0.035078
3138.4185,0.035455
3140.2821,0.035648
3142.1458,0.035694
3144.0095,0.036008
3145.8731,0.036344
3147.7368,0.036399
3149.6005,0.037026
3151.4641,0.037519
3153.3278,0.037817
3155.1915,0.038070
3157.0551,0.038435
3158.9188,0.038480
3160.7825,0.038724
3162.6462,0.039280
3164.5098,0.039700
3166.3735,0.039703
3168.2372,0.040061
3170.1008,0.040286
3171.9645,0.040564
3173.8282,0.040896
3175.6918,0.041589
3177.5555,0.042108
3179.4192,0.042137
3181.2828,0.042172
3183.1465,0.042381
3185.0102,0.042417
3186.8739,0.042889
3188.7375,0.043196
3190.6012,0.043479
3192.4649,0.043956
3194.3285,0.044544
3196.1922,0.044644
3198.0559,0.044626
3199.9195,0.044801
3201.7832,0.045203
3203.6469,0.045421
3205.5105,0.045722
3207.3742,0.046057
3209.2379,0.046764
3211.1015,0.046858
3212.9652,0.046666
3214.8289,0.046630
3216.6926,0.046883
3218.5562,0.047243
3220.4199,0.047492
3222.2836,0.047664
3224.1472,0.048069
3226.0109,0.047749
3227.8746,0.047724
3229.7382,0.048336
3231.6019,0.048733
3233.4656,0.048991
3235.3292,0.049306
3237.1929,0.049298
3239.0566,0.049287
3240.9202,0.049622
3242.7839,0.049737
3244.6476,0.049606
3246.5113,0.049896
3248.3749,0.050151
3250.2386,0.050143
3252.1023,0.050180
3253.9659,0.050987
3255.8296,0.051476
3257.6933,0.051281
3259.5569,0.051197
3261.4206,0.051664
3263.2843,0.051492
3265.1479,0.051435
3267.0116,0.051747
3268.8753,0.051999
3270.7390,0.052053
3272.6026,0.051874
3274.4663,0.051950
3276.3300,0.052322
3278.1936,0.052083
3280.0573,0.052065
3281.9210,0.052037
3283.7846,0.052159
3285.6483,0.052157
3287.5120,0.052344
3289.3756,0.052420
3291.2393,0.052129
3293.1030,0.051651
3294.9666,0.051643
3296.8303,0.051762
3298.6940,0.051773
3300.5577,0.051338
3302.4213,0.051299
3304.2850,0.051471
3306.1487,0.051341
3308.0123,0.050808
3309.8760,0.050517
3311.7397,0.050400
3313.6033,0.050365
3315.4670,0.050348
3317.3307,0.050593
3319.1943,0.050270
3321.0580,0.050165
3322.9217,0.049986
3324.7854,0.050147
3326.6490,0.050589
3328.5127,0.050479
3330.3764,0.050059
3332.2400,0.050180
3334.1037,0.050207
3335.9674,0.050124
3337.8310,0.049897
3339.6947,0.049613
3341.5584,0.049542
3343.4220,0.050161
3345.2857,0.050408
3347.1494,0.049943
3349.0130,0.049343
3350.8767,0.049151
3352.7404,0.049154
3354.6041,0.049383
3356.4677,0.049451
3358.3314,0.049408
3360.1951,0.048802
3362.0587,0.048713
3363.9224,0.049311
3365.7861,0.049665
3367.6497,0.049193
3369.5134,0.048541
3371.3771,0.048422
3373.2407,0.048591
3375.1044,0.048570
3376.9681,0.048281
3378.8317,0.048208
3380.6954,0.048398
3382.5591,0.048069
3384.4228,0.047756
3386.2864,0.047559
3388.1501,0.046980
3390.0138,0.046563
3391.8774,0.047176
3393.7411,0.047734
3395.6048,0.047638
3397.4684,0.047186
3399.3321,0.047021
3401.1958,0.046572
3403.0594,0.045997
3404.9231,0.045981
3406.7868,0.046234
3408.6505,0.046276
3410.5141,0.045846
3412.3778,0.045213
3414.2415,0.045334
3416.1051,0.045127
3417.9688,0.044637
3419.8325,0.044479
3421.6961,0.044828
3423.5598,0.044519
3425.4235,0.043826
3427.2871,0.043349
3429.1508,0.042699
3431.0145,0.042479
3432.8781,0.042474
3434.7418,0.041651
3436.6055,0.041112
3438.4692,0.041628
3440.3328,0.042255
3442.1965,0.041794
3444.0602,0.040547
3445.9238,0.040396
3447.7875,0.041182
3449.6512,0.041065
3451.5148,0.040255
3453.3785,0.039454
3455.2422,0.038889
3457.1058,0.038271
3458.9695,0.038001
3460.8332,0.038161
3462.6969,0.038138
3464.5605,0.037202
3466.4242,0.036438
3468.2879,0.036268
3470.1515,0.036176
3472.0152,0.035840
3473.8789,0.035647
3475.7425,0.035052
3477.6062,0.034557
3479.4699,0.034450
3481.3335,0.034152
3483.1972,0.034011
3485.0609,0.033833
3486.9245,0.032682
3488.7882,0.031774
3490.6519,0.031768
3492.5156,0.031703
3494.3792,0.031428
3496.2429,0.030678
3498.1066,0.029939
3499.9702,0.029858
3501.8339,0.029142
3503.6976,0.028753
3505.5612,0.029275
3507.4249,0.028971
3509.2886,0.027690
3511.1522,0.027066
3513.0159,0.026953
3514.8796,0.026548
3516.7432,0.026198
3518.6069,0.025973
3520.4706,0.025460
3522.3343,0.024752
3524.1979,0.024271
3526.0616,0.024153
3527.9253,0.023834
3529.7889,0.022972
3531.6526,0.022262
3533.5163,0.022289
3535.3799,0.021772
3537.2436,0.020942
3539.1073,0.020216
3540.9709,0.019578
3542.8346,0.019380
3544.6983,0.019065
3546.5620,0.018705
3548.4256,0.018461
3550.2893,0.018027
3552.1530,0.017620
3554.0166,0.016878
3555.8803,0.015873
3557.7440,0.015150
3559.6076,0.015547
3561.4713,0.015655
3563.3350,0.014862
3565.1986,0.014383
3567.0623,0.014189
3568.9260,0.013651
3570.7896,0.012570
3572.6533,0.012118
3574.5170,0.012058
3576.3807,0.011648
3578.2443,0.011206
3580.1080,0.010362
3581.9717,0.009492
3583.8353,0.009214
3585.6990,0.009248
3587.5627,0.009009
3589.4263,0.008575
3591.2900,0.008051
3593.1537,0.007441
3595.0173,0.006863
3596.8810,0.006545
3598.7447,0.006570
3600.6084,0.006133
3602.4720,0.005144
3604.3357,0.004662
3606.1994,0.004289
3608.0630,0.003697
3609.9267,0.003685
3611.7904,0.003761
3613.6540,0.003236
3615.5177,0.002327
3617.3814,0.001813
3619.2450,0.001627
3621.1087,0.001412
3622.9724,0.001247
3624.8360,0.000839
3626.6997,0.000230
3628.5634,-0.000668
3630.4271,-0.000976
3632.2907,-0.000746
3634.1544,-0.001288
3636.0181,-0.001624
3637.8817,-0.001766
3639.7454,-0.002482
3641.6091,-0.003188
3643.4727,-0.003335
3645.3364,-0.003480
3647.2001,-0.004062
3649.0637,-0.004366
3650.9274,-0.004389
3652.7911,-0.004577
3654.6547,-0.005182
3656.5184,-0.005768
3658.3821,-0.005627
3660.2458,-0.005871
3662.1094,-0.006541
3663.9731,-0.006780
3665.8368,-0.006867
3667.7004,-0.007136
3669.5641,-0.007781
3671.4278,-0.008120
3673.2914,-0.007741
3675.1551,-0.007879
3677.0188,-0.008317
3678.8824,-0.008089
3680.7461,-0.007968
3682.6098,-0.008242
3684.4735,-0.008553
3686.3371,-0.008926
3688.2008,-0.009331
3690.0645,-0.009321
3691.9281,-0.009279
3693.7918,-0.009318
3695.6555,-0.009350
3697.5191,-0.009347
3699.3828,-0.009325
3701.2465,-0.009737
3703.1101,-0.010014
3704.9738,-0.009727
3706.8375,-0.009425
3708.7011,-0.009497
3710.5648,-0.009742
3712.4285,-0.009584
3714.2922,-0.009496
3716.1558,-0.009542
3718.0195,-0.009610
3719.8832,-0.009798
3721.7468,-0.009971
3723.6105,-0.009949
3725.4742,-0.009954
3727.3378,-0.009830
3729.2015,-0.009631
3731.0652,-0.009922
3732.9288,-0.010449
3734.7925,-0.010652
3736.6562,-0.010531
3738.5199,-0.009833
3740.3835,-0.009668
3742.2472,-0.009917
3744.1109,-0.010336
3745.9745,-0.010447
3747.8382,-0.010007
3749.7019,-0.010220
3751.5655,-0.010381
3753.4292,-0.010287
3755.2929,-0.010309
3757.1565,-0.010338
3759.0202,-0.010084
3760.8839,-0.009598
3762.7475,-0.009615
3764.6112,-0.009955
3766.4749,-0.010313
3768.3386,-0.010408
3770.2022,-0.010273
3772.0659,-0.009980
3773.9296,-0.009845
3775.7932,-0.010194
3777.6569,-0.010301
3779.5206,-0.010035
3781.3842,-0.009860
3783.2479,-0.009905
3785.1116,-0.010359
3786.9752,-0.010546
3788.8389,-0.010229
3790.7026,-0.010322
3792.5662,-0.010540
3794.4299,-0.010317
3796.2936,-0.010496
3798.1573,-0.010351
3800.0209,-0.010091
3801.8846,-0.010480
3803.7483,-0.010323
3805.6119,-0.010538
3807.4756,-0.011197
3809.3393,-0.010498
3811.2029,-0.009709
3813.0666,-0.010001
3814.9303,-0.010587
3816.7939,-0.010729
3818.6576,-0.010418
3820.5213,-0.010556
3822.3850,-0.010721
3824.2486,-0.010185
3826.1123,-0.010126
3827.9760,-0.009920
3829.8396,-0.010001
3831.7033,-0.010639
3833.5670,-0.010676
3835.4306,-0.010504
3837.2943,-0.010526
3839.1580,-0.010399
3841.0216,-0.010480
3842.8853,-0.010315
3844.7490,-0.010246
3846.6126,-0.010389
3848.4763,-0.010219
3850.3400,-0.010197
3852.2037,-0.010596
3854.0673,-0.010498
3855.9310,-0.009935
3857.7947,-0.009989
3859.6583,-0.010310
3861.5220,-0.010410
3863.3857,-0.010240
3865.2493,-0.010203
3867.1130,-0.010055
3868.9767,-0.010027
3870.8403,-0.010472
3872.7040,-0.010171
3874.5677,-0.010372
3876.4314,-0.010295
3878.2950,-0.009822
3880.1587,-0.010108
3882.0224,-0.010528
3883.8860,-0.010372
3885.7497,-0.010207
3887.6134,-0.009964
3889.4770,-0.010197
3891.3407,-0.010597
3893.2044,-0.010627
3895.0680,-0.010437
3896.9317,-0.010386
3898.7954,-0.010684
3900.6590,-0.010766
3902.5227,-0.010180
3904.3864,-0.010224
3906.2501,-0.010165
3908.1137,-0.009902
3909.9774,-0.009966
3911.8411,-0.010019
3913.7047,-0.009970
3915.5684,-0.009819
3917.4321,-0.009554
3919.2957,-0.009474
3921.1594,-0.009597
3923.0231,-0.009713
3924.8867,-0.009985
3926.7504,-0.010297
3928.6141,-0.010167
3930.4777,-0.010240
3932.3414,-0.010229
3934.2051,-0.010092
3936.0688,-0.010242
3937.9324,-0.010272
3939.7961,-0.010123
3941.6598,-0.010263
3943.5234,-0.010136
3945.3871,-0.009743
3947.2508,-0.009636
3949.1144,-0.010154
3950.9781,-0.010203
3952.8418,-0.010040
3954.7054,-0.010005
3956.5691,-0.009900
3958.4328,-0.010006
3960.2965,-0.010200
3962.1601,-0.010357
3964.0238,-0.010391
3965.8875,-0.010159
3967.7511,-0.010187
3969.6148,-0.010339
3971.4785,-0.010062
3973.3421,-0.009753
3975.2058,-0.009816
3977.0695,-0.010034
3978.9331,-0.010135
3980.7968,-0.009938
3982.6605,-0.009996
3984.5241,-0.010233
3986.3878,-0.010283
3988.2515,-0.009932
3990.1152,-0.009805
3991.9788,-0.009799
3993.8425,-0.009841
3995.7062,-0.009721
3997.5698,-0.009888
3999.4335,-0.010143
