Wavenumber,Intensity
650.4205,0.117462
652.2841,0.117851
654.1478,0.118787
656.0115,0.117870
657.8751,0.118183
659.7388,0.117535
661.6025,0.115454
663.4661,0.113785
665.3298,0.112190
667.1935,0.111801
669.0571,0.114356
670.9208,0.114361
672.7845,0.113222
674.6481,0.111754
676.5118,0.111294
678.3755,0.110392
680.2392,0.108230
682.1028,0.107281
683.9665,0.107819
685.8302,0.107635
687.6938,0.106600
689.5575,0.105766
691.4212,0.105551
693.2848,0.104646
695.1485,0.103241
697.0122,0.102405
698.8758,0.102477
700.7395,0.102041
702.6032,0.099983
704.4669,0.098172
706.3305,0.097747
708.1942,0.096308
710.0579,0.094557
711.9215,0.093948
713.7852,0.092878
715.6489,0.091540
717.5125,0.091196
719.3762,0.091126
721.2399,0.089911
723.1035,0.088400
724.9672,0.087406
726.8309,0.086546
728.6945,0.085724
730.5582,0.084294
732.4219,0.083394
734.2856,0.083595
736.1492,0.083518
738.0129,0.082888
739.8766,0.082095
741.7402,0.081423
743.6039,0.080615
745.4676,0.080021
747.3312,0.079469
749.1949,0.078523
751.0586,0.077865
752.9222,0.077026
754.7859,0.076179
756.6496,0.075957
758.5132,0.075503
760.3769,0.075014
762.2406,0.074678
764.1043,0.074502
765.9679,0.074402
767.8316,0.074098
769.6953,0.073781
771.5589,0.073067
773.4226,0.071818
775.2863,0.071089
777.1499,0.070844
779.0136,0.070300
780.8773,0.069677
782.7409,0.069200
784.6046,0.068375
786.4683,0.067470
788.3320,0.067390
790.1956,0.067176
792.0593,0.066215
793.9230,0.065449
795.7866,0.064592
797.6503,0.064081
799.5140,0.064181
801.3776,0.064086
803.2413,0.063695
805.1050,0.063685
806.9686,0.063931
808.8323,0.063965
810.6960,0.063637
812.5596,0.063090
814.4233,0.062559
816.2870,0.062078
818.1507,0.061503
820.0143,0.060819
821.8780,0.059813
823.7417,0.058434
825.6053,0.057365
827.4690,0.056641
829.3327,0.056071
831.1963,0.055589
833.0600,0.054672
834.9237,0.053529
836.7873,0.052521
838.6510,0.051859
840.5147,0.051293
842.3784,0.050533
844.2420,0.049934
846.1057,0.049728
847.9694,0.049488
849.8330,0.049307
851.6967,0.049336
853.5604,0.049224
855.4240,0.049016
857.2877,0.048949
859.1514,0.048951
861.0150,0.049010
862.8787,0.049073
864.7424,0.049160
866.6060,0.049540
868.4697,0.050023
870.3334,0.050514
872.1971,0.051021
874.0607,0.051156
875.9244,0.050855
877.7881,0.050371
879.6517,0.049811
881.5154,0.049432
883.3791,0.049205
885.2427,0.048916
887.1064,0.048821
888.9701,0.048768
890.8337,0.048838
892.6974,0.048942
894.5611,0.048834
896.4247,0.048706
898.2884,0.048766
900.1521,0.048697
902.0158,0.048351
903.8794,0.047989
905.7431,0.047878
907.6068,0.048008
909.4704,0.048256
911.3341,0.048598
913.1978,0.048897
915.0614,0.049203
916.9251,0.049647
918.7888,0.049987
920.6524,0.050154
922.5161,0.050249
924.3798,0.050276
926.2435,0.050421
928.1071,0.050612
929.9708,0.050575
931.8345,0.050730
933.6981,0.051158
935.5618,0.051599
937.4255,0.052118
939.2891,0.052838
941.1528,0.053664
943.0165,0.054584
944.8801,0.055491
946.7438,0.056176
948.6075,0.056655
950.4711,0.057126
952.3348,0.057661
954.1985,0.058334
956.0622,0.059268
957.9258,0.060557
959.7895,0.062279
961.6532,0.064264
963.5168,0.066320
965.3805,0.068159
967.2442,0.069338
969.1078,0.069839
970.9715,0.069965
972.8352,0.070027
974.6988,0.070235
976.5625,0.070864
978.4262,0.071794
980.2899,0.072871
982.1535,0.074092
984.0172,0.075324
985.8809,0.076428
987.7445,0.077538
989.6082,0.078705
991.4719,0.079920
993.3355,0.081329
995.1992,0.082867
997.0629,0.084337
998.9265,0.085635
1000.7902,0.086820
1002.6539,0.088168
1004.5175,0.089788
1006.3812,0.091758
1008.2449,0.094207
1010.1086,0.097167
1011.9722,0.100436
1013.8359,0.103677
1015.6996,0.106685
1017.5632,0.109403
1019.4269,0.111653
1021.2906,0.113377
1023.1542,0.114736
1025.0179,0.115907
1026.8816,0.117005
1028.7452,0.118134
1030.6089,0.119054
1032.4726,0.119595
1034.3362,0.119848
1036.1999,0.119804
1038.0636,0.119519
1039.9273,0.119069
1041.7909,0.118426
1043.6546,0.117774
1045.5183,0.117303
1047.3819,0.117050
1049.2456,0.117002
1051.1093,0.117033
1052.9729,0.117055
1054.8366,0.117040
1056.7003,0.117125
1058.5639,0.117268
1060.4276,0.117285
1062.2913,0.117225
1064.1550,0.117305
1066.0186,0.117495
1067.8823,0.117594
1069.7460,0.117397
1071.6096,0.116933
1073.4733,0.116254
1075.3370,0.115135
1077.2006,0.113455
1079.0643,0.111230
1080.9280,0.108528
1082.7916,0.105633
1084.6553,0.102664
1086.5190,0.099726
1088.3826,0.096984
1090.2463,0.094587
1092.1100,0.092605
1093.9737,0.090953
1095.8373,0.089571
1097.7010,0.088283
1099.5647,0.087090
1101.4283,0.086082
1103.2920,0.085328
1105.1557,0.084770
1107.0193,0.084303
1108.8830,0.083860
1110.7467,0.083417
1112.6103,0.083076
1114.4740,0.082637
1116.3377,0.081882
1118.2014,0.080938
1120.0650,0.079945
1121.9287,0.079020
1123.7924,0.078078
1125.6560,0.076985
1127.5197,0.075860
1129.3834,0.074748
1131.2470,0.073570
1133.1107,0.072250
1134.9744,0.070874
1136.8380,0.069524
1138.7017,0.068353
1140.5654,0.067538
1142.4290,0.067042
1144.2927,0.066772
1146.1564,0.066668
1148.0201,0.066742
1149.8837,0.066948
1151.7474,0.067110
1153.6111,0.067217
1155.4747,0.067217
1157.3384,0.067020
1159.2021,0.066681
1161.0657,0.066252
1162.9294,0.065656
1164.7931,0.064776
1166.6567,0.063654
1168.5204,0.062345
1170.3841,0.060750
1172.2477,0.058933
1174.1114,0.057022
1175.9751,0.055020
1177.8388,0.053339
1179.7024,0.052108
1181.5661,0.051352
1183.4298,0.051084
1185.2934,0.051217
1187.1571,0.051656
1189.0208,0.052259
1190.8844,0.052887
1192.7481,0.053604
1194.6118,0.054519
1196.4754,0.055573
1198.3391,0.056664
1200.2028,0.057976
1202.0665,0.059225
1203.9301,0.060304
1205.7938,0.061189
1207.6575,0.061853
1209.5211,0.062467
1211.3848,0.063199
1213.2485,0.063970
1215.1121,0.064723
1216.9758,0.065538
1218.8395,0.066495
1220.7031,0.067522
1222.5668,0.068570
1224.4305,0.069572
1226.2941,0.070570
1228.1578,0.071428
1230.0215,0.072099
1231.8852,0.072677
1233.7488,0.073149
1235.6125,0.073425
1237.4762,0.073535
1239.3398,0.073518
1241.2035,0.073363
1243.0672,0.072960
1244.9308,0.072339
1246.7945,0.071623
1248.6582,0.070929
1250.5218,0.070193
1252.3855,0.069443
1254.2492,0.068671
1256.1129,0.067834
1257.9765,0.067055
1259.8402,0.066398
1261.7039,0.065811
1263.5675,0.065262
1265.4312,0.064749
1267.2949,0.064245
1269.1585,0.063896
1271.0222,0.063637
1272.8859,0.063250
1274.7495,0.062745
1276.6132,0.062452
1278.4769,0.062228
1280.3405,0.061959
1282.2042,0.061840
1284.0679,0.061718
1285.9316,0.061544
1287.7952,0.061642
1289.6589,0.061824
1291.5226,0.061961
1293.3862,0.062184
1295.2499,0.062541
1297.1136,0.063031
1298.9772,0.063601
1300.8409,0.064206
1302.7046,0.064776
1304.5682,0.065231
1306.4319,0.065682
1308.2956,0.066130
1310.1592,0.066472
1312.0229,0.066741
1313.8866,0.066852
1315.7503,0.066656
1317.6139,0.066517
1319.4776,0.066268
1321.3413,0.065658
1323.2049,0.065111
1325.0686,0.064593
1326.9323,0.064130
1328.7959,0.063888
1330.6596,0.063778
1332.5233,0.063594
1334.3869,0.063306
1336.2506,0.063429
1338.1143,0.064219
1339.9780,0.065019
1341.8416,0.064722
1343.7053,0.064366
1345.5690,0.064327
1347.4326,0.064310
1349.2963,0.064317
1351.1600,0.064143
1353.0236,0.064201
1354.8873,0.064414
1356.7510,0.064339
1358.6146,0.064430
1360.4783,0.065577
1362.3420,0.067787
1364.2056,0.069206
1366.0693,0.069777
1367.9330,0.071016
1369.7967,0.072042
1371.6603,0.073005
1373.5240,0.075231
1375.3877,0.076853
1377.2513,0.077010
1379.1150,0.077441
1380.9787,0.077549
1382.8423,0.077314
1384.7060,0.077419
1386.5697,0.078615
1388.4333,0.078987
1390.2970,0.077700
1392.1607,0.077204
1394.0244,0.078178
1395.8880,0.078756
1397.7517,0.078716
1399.6154,0.078767
1401.4790,0.077327
1403.3427,0.076865
1405.2064,0.077092
1407.0700,0.076129
1408.9337,0.075118
1410.7974,0.074473
1412.6610,0.073288
1414.5247,0.071785
1416.3884,0.071302
1418.2520,0.073105
1420.1157,0.073678
1421.9794,0.071933
1423.8431,0.071929
1425.7067,0.071977
1427.5704,0.072137
1429.4341,0.073656
1431.2977,0.074570
1433.1614,0.074644
1435.0251,0.076856
1436.8887,0.081211
1438.7524,0.080988
1440.6161,0.079924
1442.4797,0.080061
1444.3434,0.079957
1446.2071,0.080344
1448.0707,0.080905
1449.9344,0.079861
1451.7981,0.077922
1453.6618,0.076146
1455.5254,0.077003
1457.3891,0.079847
1459.2528,0.076195
1461.1164,0.072102
1462.9801,0.070666
1464.8438,0.071056
1466.7074,0.068832
1468.5711,0.065547
1470.4348,0.063919
1472.2984,0.064628
1474.1621,0.063723
1476.0258,0.062165
1477.8895,0.061029
1479.7531,0.060508
1481.6168,0.060822
1483.4805,0.060754
1485.3441,0.061426
1487.2078,0.064348
1489.0715,0.068984
1490.9351,0.071974
1492.7988,0.071542
1494.6625,0.073581
1496.5261,0.079734
1498.3898,0.083740
1500.2535,0.084329
1502.1171,0.083725
1503.9808,0.085267
1505.8445,0.095257
1507.7082,0.105485
1509.5718,0.103712
1511.4355,0.103485
1513.2992,0.104493
1515.1628,0.106124
1517.0265,0.108177
1518.8902,0.108411
1520.7538,0.111863
1522.6175,0.114453
1524.4812,0.113668
1526.3448,0.115118
1528.2085,0.115091
1530.0722,0.114067
1531.9359,0.115019
1533.7995,0.116836
1535.6632,0.113676
1537.5269,0.112801
1539.3905,0.117955
1541.2542,0.119776
1543.1179,0.116814
1544.9815,0.114294
1546.8452,0.110664
1548.7089,0.108271
1550.5725,0.105747
1552.4362,0.102247
1554.2999,0.099016
1556.1635,0.096520
1558.0272,0.099661
1559.8909,0.099759
1561.7546,0.092602
1563.6182,0.089074
1565.4819,0.086856
1567.3456,0.084900
1569.2092,0.084461
1571.0729,0.082100
1572.9366,0.079377
1574.8002,0.079898
1576.6639,0.081193
1578.5276,0.078732
1580.3912,0.077126
1582.2549,0.077075
1584.1186,0.077535
1585.9822,0.078126
1587.8459,0.078823
1589.7096,0.079867
1591.5733,0.081432
1593.4369,0.083499
1595.3006,0.085690
1597.1643,0.087563
1599.0279,0.089579
1600.8916,0.092391
1602.7553,0.095408
1604.6189,0.098401
1606.4826,0.101733
1608.3463,0.105305
1610.2099,0.108134
1612.0736,0.110179
1613.9373,0.112783
1615.8010,0.118916
1617.6646,0.123128
1619.5283,0.122560
1621.3920,0.124390
1623.2556,0.128536
1625.1193,0.129673
1626.9830,0.130272
1628.8466,0.130637
1630.7103,0.129252
1632.5740,0.128513
1634.4376,0.131359
1636.3013,0.133063
1638.1650,0.129044
1640.0286,0.125504
1641.8923,0.122549
1643.7560,0.120412
1645.6197,0.120172
1647.4833,0.118184
1649.3470,0.113539
1651.2107,0.112288
1653.0743,0.114524
1654.9380,0.108555
1656.8017,0.103134
1658.6653,0.099149
1660.5290,0.095698
1662.3927,0.092652
1664.2563,0.088435
1666.1200,0.084209
1667.9837,0.081642
1669.8474,0.078606
1671.7110,0.074485
1673.5747,0.071015
1675.4384,0.067953
1677.3020,0.063624
1679.1657,0.059877
1681.0294,0.056253
1682.8930,0.053589
1684.7567,0.049862
1686.6204,0.045437
1688.4840,0.041841
1690.3477,0.038017
1692.2114,0.034177
1694.0750,0.030636
1695.9387,0.026792
1697.8024,0.023427
1699.6661,0.020528
1701.5297,0.017190
1703.3934,0.015137
1705.2571,0.013564
1707.1207,0.011848
1708.9844,0.010522
1710.8481,0.009452
1712.7117,0.008539
1714.5754,0.007668
1716.4391,0.007066
1718.3027,0.006633
1720.1664,0.006312
1722.0301,0.005783
1723.8937,0.005503
1725.7574,0.005207
1727.6211,0.004767
1729.4848,0.004406
1731.3484,0.004400
1733.2121,0.004154
1735.0758,0.004060
1736.9394,0.003941
1738.8031,0.003878
1740.6668,0.003890
1742.5304,0.003978
1744.3941,0.003823
1746.2578,0.003410
1748.1214,0.002835
1749.9851,0.002389
1751.8488,0.002033
1753.7125,0.001634
1755.5761,0.001022
1757.4398,0.000747
1759.3035,0.000593
1761.1671,0.000195
1763.0308,-0.000053
1764.8945,0.000044
1766.7581,0.000009
1768.6218,-0.000070
1770.4855,-0.000215
1772.3491,-0.000404
1774.2128,-0.000493
1776.0765,-0.000551
1777.9401,-0.000513
1779.8038,-0.000288
1781.6675,-0.000423
1783.5312,-0.000469
1785.3948,-0.000566
1787.2585,-0.000640
1789.1222,-0.000549
1790.9858,-0.000580
1792.8495,-0.000789
1794.7132,-0.000636
1796.5768,-0.000567
1798.4405,-0.000710
1800.3042,-0.000689
1802.1678,-0.000538
1804.0315,-0.000504
1805.8952,-0.000504
1807.7589,-0.000766
1809.6225,-0.001049
1811.4862,-0.001203
1813.3499,-0.001018
1815.2135,-0.000888
1817.0772,-0.000739
1818.9409,-0.000575
1820.8045,-0.000555
1822.6682,-0.000725
1824.5319,-0.000888
1826.3955,-0.000759
1828.2592,-0.000749
1830.1229,-0.001081
1831.9865,-0.000949
1833.8502,-0.000561
1835.7139,-0.000512
1837.5776,-0.000602
1839.4412,-0.000589
1841.3049,-0.000677
1843.1686,-0.000581
1845.0322,-0.000487
1846.8959,-0.000475
1848.7596,-0.000288
1850.6232,-0.000286
1852.4869,-0.000279
1854.3506,-0.000282
1856.2142,-0.000459
1858.0779,-0.000293
1859.9416,-0.000235
1861.8052,-0.000205
1863.6689,-0.000345
1865.5326,-0.000598
1867.3963,-0.000302
1869.2599,0.000113
1871.1236,0.000096
1872.9873,0.000363
1874.8509,0.000211
1876.7146,-0.000247
1878.5783,-0.000276
1880.4419,-0.000197
1882.3056,-0.000121
1884.1693,-0.000255
1886.0329,-0.000255
1887.8966,-0.000178
1889.7603,-0.000134
1891.6240,0.000292
1893.4876,0.000252
1895.3513,-0.000056
1897.2150,0.000029
1899.0786,0.000079
1900.9423,-0.000076
1902.8060,0.000208
1904.6696,0.000470
1906.5333,0.000398
1908.3970,0.000133
1910.2606,0.000201
1912.1243,0.000251
1913.9880,0.000127
1915.8516,-0.000121
1917.7153,-0.000416
1919.5790,0.000023
1921.4427,0.000880
1923.3063,0.000626
1925.1700,0.000356
1927.0337,0.000556
1928.8973,0.000126
1930.7610,0.000078
1932.6247,0.000524
1934.4883,0.000848
1936.3520,0.000801
1938.2157,0.000299
1940.0793,-0.000438
1941.9430,-0.000365
1943.8067,0.000855
1945.6704,0.001240
1947.5340,0.000880
1949.3977,0.000734
1951.2614,0.001440
1953.1250,0.002149
1954.9887,0.001602
1956.8524,0.000936
1958.7160,0.001457
1960.5797,0.002266
1962.4434,0.002169
1964.3070,0.002569
1966.1707,0.002424
1968.0344,0.001701
1969.8980,0.001842
1971.7617,0.002220
1973.6254,0.001910
1975.4891,0.002407
1977.3527,0.004051
1979.2164,0.004488
1981.0801,0.003829
1982.9437,0.003719
1984.8074,0.003732
1986.6711,0.003012
1988.5347,0.003066
1990.3984,0.003324
1992.2621,0.003753
1994.1257,0.003935
1995.9894,0.003436
1997.8531,0.003336
1999.7167,0.003067
2001.5804,0.002166
2003.4441,0.002243
2005.3078,0.003128
2007.1714,0.003612
2009.0351,0.004575
2010.8988,0.005843
2012.7624,0.005051
2014.6261,0.004334
2016.4898,0.005051
2018.3534,0.005279
2020.2171,0.004227
2022.0808,0.003444
2023.9444,0.004430
2025.8081,0.005270
2027.6718,0.004696
2029.5355,0.005129
2031.3991,0.007123
2033.2628,0.007994
2035.1265,0.007302
2036.9901,0.006266
2038.8538,0.005487
2040.7175,0.006856
2042.5811,0.007460
2044.4448,0.006046
2046.3085,0.005890
2048.1721,0.007577
2050.0358,0.009066
2051.8995,0.009106
2053.7631,0.007731
2055.6268,0.006510
2057.4905,0.006774
2059.3542,0.006914
2061.2178,0.006481
2063.0815,0.006502
2064.9452,0.006767
2066.8088,0.006226
2068.6725,0.005593
2070.5362,0.006117
2072.3998,0.007033
2074.2635,0.007218
2076.1272,0.006264
2077.9908,0.005064
2079.8545,0.005326
2081.7182,0.005711
2083.5819,0.005170
2085.4455,0.004921
2087.3092,0.004714
2089.1729,0.004362
2091.0365,0.004015
2092.9002,0.003883
2094.7639,0.004287
2096.6275,0.004973
2098.4912,0.005148
2100.3549,0.004690
2102.2185,0.004133
2104.0822,0.004131
2105.9459,0.004722
2107.8095,0.005117
2109.6732,0.004701
2111.5369,0.004324
2113.4006,0.004702
2115.2642,0.004972
2117.1279,0.005003
2118.9916,0.004483
2120.8552,0.003763
2122.7189,0.003702
2124.5826,0.003855
2126.4462,0.003568
2128.3099,0.003024
2130.1736,0.003165
2132.0372,0.003564
2133.9009,0.003871
2135.7646,0.004228
2137.6282,0.004200
2139.4919,0.003901
2141.3556,0.003925
2143.2193,0.003940
2145.0829,0.003624
2146.9466,0.004188
2148.8103,0.005500
2150.6739,0.005769
2152.5376,0.004275
2154.4013,0.003648
2156.2649,0.004581
2158.1286,0.006025
2159.9923,0.009272
2161.8559,0.010938
2163.7196,0.009390
2165.5833,0.008155
2167.4470,0.008425
2169.3106,0.007849
2171.1743,0.006663
2173.0380,0.006205
2174.9016,0.005846
2176.7653,0.006923
2178.6290,0.007489
2180.4926,0.006723
2182.3563,0.007211
2184.2200,0.007759
2186.0836,0.007215
2187.9473,0.006397
2189.8110,0.006319
2191.6746,0.006358
2193.5383,0.006212
2195.4020,0.006014
2197.2657,0.005752
2199.1293,0.006453
2200.9930,0.007221
2202.8567,0.007023
2204.7203,0.006403
2206.5840,0.005801
2208.4477,0.006048
2210.3113,0.006695
2212.1750,0.006508
2214.0387,0.005802
2215.9023,0.005056
2217.7660,0.004985
2219.6297,0.005671
2221.4934,0.006531
2223.3570,0.006757
2225.2207,0.006006
2227.0844,0.005589
2228.9480,0.006086
2230.8117,0.006762
2232.6754,0.006426
2234.5390,0.005507
2236.4027,0.005588
2238.2664,0.006174
2240.1300,0.006173
2241.9937,0.005935
2243.8574,0.006049
2245.7210,0.005990
2247.5847,0.005067
2249.4484,0.004445
2251.3121,0.004850
2253.1757,0.005551
2255.0394,0.006060
2256.9031,0.006021
2258.7667,0.005478
2260.6304,0.005194
2262.4941,0.005577
2264.3577,0.005722
2266.2214,0.005607
2268.0851,0.005670
2269.9487,0.005652
2271.8124,0.005740
2273.6761,0.006059
2275.5397,0.006096
2277.4034,0.005606
2279.2671,0.005455
2281.1308,0.005822
2282.9944,0.006080
2284.8581,0.006072
2286.7218,0.005697
2288.5854,0.005325
2290.4491,0.005441
2292.3128,0.005418
2294.1764,0.005225
2296.0401,0.005128
2297.9038,0.004883
2299.7674,0.004654
2301.6311,0.004762
2303.4948,0.004906
2305.3585,0.004882
2307.2221,0.004771
2309.0858,0.004621
2310.9495,0.004670
2312.8131,0.004933
2314.6768,0.005038
2316.5405,0.004978
2318.4041,0.005184
2320.2678,0.005548
2322.1315,0.005981
2323.9951,0.006067
2325.8588,0.005221
2327.7225,0.004341
2329.5861,0.004282
2331.4498,0.004466
2333.3135,0.004369
2335.1772,0.004402
2337.0408,0.004579
2338.9045,0.004740
2340.7682,0.005159
2342.6318,0.005257
2344.4955,0.004888
2346.3592,0.004407
2348.2228,0.003612
2350.0865,0.003088
2351.9502,0.003300
2353.8138,0.003865
2355.6775,0.004067
2357.5412,0.004603
2359.4049,0.005548
2361.2685,0.005956
2363.1322,0.005411
2364.9959,0.004779
2366.8595,0.005082
2368.7232,0.006043
2370.5869,0.006166
2372.4505,0.005589
2374.3142,0.005294
2376.1779,0.004954
2378.0415,0.004572
2379.9052,0.004398
2381.7689,0.004099
2383.6325,0.003734
2385.4962,0.003709
2387.3599,0.003764
2389.2236,0.003760
2391.0872,0.003730
2392.9509,0.003551
2394.8146,0.003696
2396.6782,0.003913
2398.5419,0.003824
2400.4056,0.003928
2402.2692,0.003989
2404.1329,0.003949
2405.9966,0.004188
2407.8602,0.004350
2409.7239,0.004145
2411.5876,0.004116
2413.4512,0.004156
2415.3149,0.004086
2417.1786,0.004109
2419.0423,0.004242
2420.9059,0.004220
2422.7696,0.004245
2424.6333,0.004500
2426.4969,0.004736
2428.3606,0.004706
2430.2243,0.004767
2432.0879,0.004936
2433.9516,0.004885
2435.8153,0.004631
2437.6789,0.004613
2439.5426,0.005160
2441.4063,0.005422
2443.2700,0.005186
2445.1336,0.005054
2446.9973,0.005038
2448.8610,0.005163
2450.7246,0.005147
2452.5883,0.004943
2454.4520,0.005210
2456.3156,0.005571
2458.1793,0.005574
2460.0430,0.005420
2461.9066,0.005193
2463.7703,0.005170
2465.6340,0.005336
2467.4976,0.005161
2469.3613,0.005104
2471.2250,0.005468
2473.0887,0.005838
2474.9523,0.005952
2476.8160,0.005684
2478.6797,0.005449
2480.5433,0.005592
2482.4070,0.005615
2484.2707,0.005467
2486.1343,0.005345
2487.9980,0.005580
2489.8617,0.005811
2491.7253,0.005620
2493.5890,0.005751
2495.4527,0.006102
2497.3164,0.006107
2499.1800,0.006190
2501.0437,0.006178
2502.9074,0.005949
2504.7710,0.005931
2506.6347,0.005953
2508.4984,0.005933
2510.3620,0.006064
2512.2257,0.006146
2514.0894,0.005859
2515.9530,0.005985
2517.8167,0.006503
2519.6804,0.006475
2521.5440,0.006275
2523.4077,0.006436
2525.2714,0.006636
2527.1351,0.006618
2528.9987,0.006490
2530.8624,0.006424
2532.7261,0.006567
2534.5897,0.006760
2536.4534,0.006646
2538.3171,0.006908
2540.1807,0.007063
2542.0444,0.007035
2543.9081,0.007136
2545.7717,0.006827
2547.6354,0.006703
2549.4991,0.006668
2551.3627,0.006654
2553.2264,0.006805
2555.0901,0.007070
2556.9538,0.007246
2558.8174,0.007244
2560.6811,0.007304
2562.5448,0.007411
2564.4084,0.007236
2566.2721,0.007173
2568.1358,0.007494
2569.9994,0.007646
2571.8631,0.007688
2573.7268,0.007860
2575.5904,0.007795
2577.4541,0.007594
2579.3178,0.007927
2581.1815,0.007963
2583.0451,0.007690
2584.9088,0.007846
2586.7725,0.008337
2588.6361,0.008588
2590.4998,0.008379
2592.3635,0.008358
2594.2271,0.008447
2596.0908,0.008436
2597.9545,0.008471
2599.8181,0.008550
2601.6818,0.008877
2603.5455,0.008959
2605.4091,0.008957
2607.2728,0.009073
2609.1365,0.009151
2611.0002,0.008937
2612.8638,0.008804
2614.7275,0.008983
2616.5912,0.009228
2618.4548,0.009498
2620.3185,0.009516
2622.1822,0.009555
2624.0458,0.009642
2625.9095,0.009703
2627.7732,0.009632
2629.6368,0.009710
2631.5005,0.009786
2633.3642,0.009980
2635.2279,0.010187
2637.0915,0.010269
2638.9552,0.010348
2640.8189,0.010428
2642.6825,0.010375
2644.5462,0.010428
2646.4099,0.010664
2648.2735,0.010687
2650.1372,0.010678
2652.0009,0.010678
2653.8645,0.010668
2655.7282,0.010681
2657.5919,0.010630
2659.4555,0.010742
2661.3192,0.010773
2663.1829,0.010585
2665.0466,0.010506
2666.9102,0.010580
2668.7739,0.010569
2670.6376,0.010535
2672.5012,0.010719
2674.3649,0.010902
2676.2286,0.010882
2678.0922,0.010770
2679.9559,0.010883
2681.8196,0.011078
2683.6832,0.011239
2685.5469,0.011471
2687.4106,0.011503
2689.2742,0.011457
2691.1379,0.011478
2693.0016,0.011641
2694.8653,0.011622
2696.7289,0.011519
2698.5926,0.011532
2700.4563,0.011759
2702.3199,0.012055
2704.1836,0.012130
2706.0473,0.012420
2707.9109,0.012581
2709.7746,0.012500
2711.6383,0.012443
2713.5019,0.012480
2715.3656,0.012661
2717.2293,0.012940
2719.0930,0.013079
2720.9566,0.013224
2722.8203,0.013309
2724.6840,0.013273
2726.5476,0.013280
2728.4113,0.013510
2730.2750,0.013883
2732.1386,0.013912
2734.0023,0.013829
2735.8660,0.013947
2737.7296,0.014023
2739.5933,0.014252
2741.4570,0.014490
2743.3206,0.014630
2745.1843,0.014835
2747.0480,0.015055
2748.9117,0.015198
2750.7753,0.015160
2752.6390,0.015098
2754.5027,0.015292
2756.3663,0.015506
2758.2300,0.015568
2760.0937,0.015710
2761.9573,0.015914
2763.8210,0.016158
2765.6847,0.016543
2767.5483,0.016650
2769.4120,0.016711
2771.2757,0.016920
2773.1394,0.017026
2775.0030,0.017010
2776.8667,0.017261
2778.7304,0.017517
2780.5940,0.017815
2782.4577,0.018128
2784.3214,0.018228
2786.1850,0.018268
2788.0487,0.018463
2789.9124,0.018513
2791.7760,0.018625
2793.6397,0.018746
2795.5034,0.018936
2797.3670,0.019371
2799.2307,0.019570
2801.0944,0.019519
2802.9581,0.019736
2804.8217,0.020213
2806.6854,0.020391
2808.5491,0.020575
2810.4127,0.020936
2812.2764,0.020971
2814.1401,0.020994
2816.0037,0.021475
2817.8674,0.021698
2819.7311,0.021887
2821.5947,0.022267
2823.4584,0.022637
2825.3221,0.022971
2827.1857,0.023179
2829.0494,0.023595
2830.9131,0.023978
2832.7768,0.024284
2834.6404,0.024578
2836.5041,0.024916
2838.3678,0.025470
2840.2314,0.026409
2842.0951,0.027168
2843.9588,0.028016
2845.8224,0.028850
2847.6861,0.029930
2849.5498,0.030897
2851.4134,0.031402
2853.2771,0.031726
2855.1408,0.031760
2857.0045,0.031509
2858.8681,0.031337
2860.7318,0.031258
2862.5955,0.031296
2864.4591,0.031455
2866.3228,0.031633
2868.1865,0.031912
2870.0501,0.032675
2871.9138,0.033011
2873.7775,0.032919
2875.6411,0.032782
2877.5048,0.032850
2879.3685,0.032888
2881.2321,0.032667
2883.0958,0.032746
2884.9595,0.033058
2886.8232,0.033156
2888.6868,0.033215
2890.5505,0.033350
2892.4142,0.033531
2894.2778,0.033751
2896.1415,0.034320
2898.0052,0.034670
2899.8688,0.035172
2901.7325,0.035751
2903.5962,0.036174
2905.4598,0.036867
2907.3235,0.037645
2909.1872,0.038295
2911.0509,0.038961
2912.9145,0.039671
2914.7782,0.040500
2916.6419,0.041325
2918.5055,0.042190
2920.3692,0.042630
2922.2329,0.042836
2924.0965,0.043027
2925.9602,0.042712
2927.8239,0.042104
2929.6875,0.041868
2931.5512,0.041461
2933.4149,0.040812
2935.2785,0.040016
2937.1422,0.039640
2939.0059,0.039496
2940.8696,0.039016
2942.7332,0.038352
2944.5969,0.037993
2946.4606,0.037848
2948.3242,0.037702
2950.1879,0.037776
2952.0516,0.037866
2953.9152,0.037881
2955.7789,0.038032
2957.6426,0.037955
2959.5062,0.037678
2961.3699,0.037422
2963.2336,0.037162
2965.0972,0.036467
2966.9609,0.035650
2968.8246,0.035233
2970.6883,0.034870
2972.5519,0.034088
2974.4156,0.033687
2976.2793,0.033446
2978.1429,0.033091
2980.0066,0.032563
2981.8703,0.032041
2983.7339,0.031380
2985.5976,0.031049
2987.4613,0.030791
2989.3249,0.030532
2991.1886,0.030271
2993.0523,0.030206
2994.9160,0.030134
2996.7796,0.030001
2998.6433,0.029896
3000.5070,0.029969
3002.3706,0.030155
3004.2343,0.030330
3006.0980,0.030637
3007.9616,0.030982
3009.8253,0.031365
3011.6890,0.031672
3013.5526,0.031392
3015.4163,0.031240
3017.2800,0.031510
3019.1436,0.031797
3021.0073,0.032011
3022.8710,0.032459
3024.7347,0.033183
3026.5983,0.033587
3028.4620,0.033746
3030.3257,0.034187
3032.1893,0.034705
3034.0530,0.035173
3035.9167,0.035345
3037.7803,0.035659
3039.6440,0.035746
3041.5077,0.035860
3043.3713,0.036168
3045.2350,0.036612
3047.0987,0.036905
3048.9624,0.037303
3050.8260,0.037553
3052.6897,0.037718
3054.5534,0.038157
3056.4170,0.038496
3058.2807,0.038804
3060.1444,0.039083
3062.0080,0.039193
3063.8717,0.039510
3065.7354,0.039982
3067.5990,0.040500
3069.4627,0.040554
3071.3264,0.040353
3073.1900,0.040427
3075.0537,0.040763
3076.9174,0.040596
3078.7811,0.040590
3080.6447,0.040547
3082.5084,0.040472
3084.3721,0.040656
3086.2357,0.040517
3088.0994,0.040290
3089.9631,0.040438
3091.8267,0.040373
3093.6904,0.040556
3095.5541,0.040863
3097.4177,0.040728
3099.2814,0.040713
3101.1451,0.040769
3103.0087,0.041061
3104.8724,0.041543
3106.7361,0.041537
3108.5998,0.041598
3110.4634,0.041635
3112.3271,0.041652
3114.1908,0.042014
3116.0544,0.042278
3117.9181,0.042234
3119.7818,0.042426
3121.6454,0.042593
3123.5091,0.042723
3125.3728,0.042758
3127.2364,0.042905
3129.1001,0.043316
3130.9638,0.043896
3132.8275,0.044377
3134.6911,0.045093
3136.5548,0.045381
3138.4185,0.045472
3140.2821,0.045931
3142.1458,0.046429
3144.0095,0.046848
3145.8731,0.047168
3147.7368,0.047412
3149.6005,0.047899
3151.4641,0.048259
3153.3278,0.048858
3155.1915,0.049295
3157.0551,0.049560
3158.9188,0.049649
3160.7825,0.050254
3162.6462,0.051097
3164.5098,0.051666
3166.3735,0.052037
3168.2372,0.052324
3170.1008,0.052496
3171.9645,0.052842
3173.8282,0.053240
3175.6918,0.053800
3177.5555,0.054465
3179.4192,0.055149
3181.2828,0.055303
3183.1465,0.055321
3185.0102,0.055611
3186.8739,0.056102
3188.7375,0.056725
3190.6012,0.057083
3192.4649,0.057141
3194.3285,0.057590
3196.1922,0.058034
3198.0559,0.058344
3199.9195,0.058170
3201.7832,0.058359
3203.6469,0.058519
3205.5105,0.058984
3207.3742,0.059244
3209.2379,0.059360
3211.1015,0.059526
3212.9652,0.059827
3214.8289,0.060336
3216.6926,0.060376
3218.5562,0.059940
3220.4199,0.060283
3222.2836,0.060829
3224.1472,0.061043
3226.0109,0.061089
3227.8746,0.061378
3229.7382,0.061455
3231.6019,0.061405
3233.4656,0.061644
3235.3292,0.062102
3237.1929,0.062444
3239.0566,0.062681
3240.9202,0.062678
3242.7839,0.062876
3244.6476,0.063262
3246.5113,0.063678
3248.3749,0.063708
3250.2386,0.063755
3252.1023,0.064179
3253.9659,0.064858
3255.8296,0.064818
3257.6933,0.064757
3259.5569,0.065020
3261.4206,0.065254
3263.2843,0.065029
3265.1479,0.065224
3267.0116,0.065916
3268.8753,0.066415
3270.7390,0.065918
3272.6026,0.065541
3274.4663,0.065792
3276.3300,0.065952
3278.1936,0.065799
3280.0573,0.065403
3281.9210,0.065011
3283.7846,0.064926
3285.6483,0.064496
3287.5120,0.064183
3289.3756,0.063869
3291.2393,0.063858
3293.1030,0.063904
3294.9666,0.063492
3296.8303,0.062683
3298.6940,0.062270
3300.5577,0.062129
3302.4213,0.061942
3304.2850,0.061512
3306.1487,0.061087
3308.0123,0.060593
3309.8760,0.060770
3311.7397,0.060236
3313.6033,0.059647
3315.4670,0.059743
3317.3307,0.059472
3319.1943,0.058794
3321.0580,0.058361
3322.9217,0.058006
3324.7854,0.058202
3326.6490,0.057850
3328.5127,0.057217
3330.3764,0.057181
3332.2400,0.056912
3334.1037,0.056499
3335.9674,0.056573
3337.8310,0.056451
3339.6947,0.056170
3341.5584,0.055853
3343.4220,0.055838
3345.2857,0.055262
3347.1494,0.054801
3349.0130,0.054655
3350.8767,0.054317
3352.7404,0.053949
3354.6041,0.053706
3356.4677,0.053429
3358.3314,0.053421
3360.1951,0.053005
3362.0587,0.052344
3363.9224,0.052320
3365.7861,0.052361
3367.6497,0.052118
3369.5134,0.051891
3371.3771,0.051170
3373.2407,0.050732
3375.1044,0.050654
3376.9681,0.050707
3378.8317,0.050288
3380.6954,0.049775
3382.5591,0.049417
3384.4228,0.049245
3386.2864,0.049195
3388.1501,0.049255
3390.0138,0.048744
3391.8774,0.048398
3393.7411,0.047976
3395.6048,0.047532
3397.4684,0.047269
3399.3321,0.046730
3401.1958,0.046282
3403.0594,0.046775
3404.9231,0.046922
3406.7868,0.047035
3408.6505,0.046450
3410.5141,0.045404
3412.3778,0.045675
3414.2415,0.045715
3416.1051,0.044965
3417.9688,0.044641
3419.8325,0.044496
3421.6961,0.044154
3423.5598,0.043722
3425.4235,0.043748
3427.2871,0.043152
3429.1508,0.042606
3431.0145,0.042602
3432.8781,0.041994
3434.7418,0.041433
3436.6055,0.041882
3438.4692,0.041560
3440.3328,0.040631
3442.1965,0.040513
3444.0602,0.040455
3445.9238,0.040037
3447.7875,0.039481
3449.6512,0.038786
3451.5148,0.038345
3453.3785,0.037843
3455.2422,0.037744
3457.1058,0.037184
3458.9695,0.036456
3460.8332,0.036101
3462.6969,0.035922
3464.5605,0.035667
3466.4242,0.035263
3468.2879,0.034702
3470.1515,0.034817
3472.0152,0.035073
3473.8789,0.034662
3475.7425,0.034021
3477.6062,0.033853
3479.4699,0.033474
3481.3335,0.032914
3483.1972,0.032680
3485.0609,0.032096
3486.9245,0.031414
3488.7882,0.030594
3490.6519,0.029883
3492.5156,0.029453
3494.3792,0.028979
3496.2429,0.028742
3498.1066,0.028519
3499.9702,0.028223
3501.8339,0.027785
3503.6976,0.027567
3505.5612,0.027217
3507.4249,0.026351
3509.2886,0.025953
3511.1522,0.026135
3513.0159,0.024991
3514.8796,0.023686
3516.7432,0.023820
3518.6069,0.023845
3520.4706,0.023317
3522.3343,0.023004
3524.1979,0.022275
3526.0616,0.021611
3527.9253,0.021679
3529.7889,0.021596
3531.6526,0.021091
3533.5163,0.020814
3535.3799,0.020076
3537.2436,0.018786
3539.1073,0.018182
3540.9709,0.017868
3542.8346,0.017329
3544.6983,0.017318
3546.5620,0.017472
3548.4256,0.017010
3550.2893,0.016566
3552.1530,0.016178
3554.0166,0.015306
3555.8803,0.014584
3557.7440,0.014288
3559.6076,0.013889
3561.4713,0.013516
3563.3350,0.013071
3565.1986,0.012548
3567.0623,0.012300
3568.9260,0.012036
3570.7896,0.011904
3572.6533,0.011457
3574.5170,0.010687
3576.3807,0.009828
3578.2443,0.009087
3580.1080,0.009112
3581.9717,0.008837
3583.8353,0.007923
3585.6990,0.007505
3587.5627,0.007691
3589.4263,0.007938
3591.2900,0.007261
3593.1537,0.006143
3595.0173,0.006043
3596.8810,0.006024
3598.7447,0.005264
3600.6084,0.004761
3602.4720,0.004464
3604.3357,0.003994
3606.1994,0.003820
3608.0630,0.003902
3609.9267,0.003642
3611.7904,0.002886
3613.6540,0.002488
3615.5177,0.002484
3617.3814,0.002035
3619.2450,0.001576
3621.1087,0.001272
3622.9724,0.001002
3624.8360,0.000661
3626.6997,0.000142
3628.5634,-0.000135
3630.4271,0.000027
3632.2907,-0.000210
3634.1544,-0.000951
3636.0181,-0.001397
3637.8817,-0.001582
3639.7454,-0.002017
3641.6091,-0.002257
3643.4727,-0.002266
3645.3364,-0.002687
3647.2001,-0.003332
3649.0637,-0.003676
3650.9274,-0.003849
3652.7911,-0.003524
3654.6547,-0.003404
3656.5184,-0.003846
3658.3821,-0.004037
3660.2458,-0.004244
3662.1094,-0.004645
3663.9731,-0.004844
3665.8368,-0.004934
3667.7004,-0.005477
3669.5641,-0.005994
3671.4278,-0.005940
3673.2914,-0.005958
3675.1551,-0.006008
3677.0188,-0.005923
3678.8824,-0.006071
3680.7461,-0.006580
3682.6098,-0.006628
3684.4735,-0.006428
3686.3371,-0.006905
3688.2008,-0.007403
3690.0645,-0.007162
3691.9281,-0.006875
3693.7918,-0.006872
3695.6555,-0.006739
3697.5191,-0.006587
3699.3828,-0.006746
3701.2465,-0.007051
3703.1101,-0.007175
3704.9738,-0.007037
3706.8375,-0.007001
3708.7011,-0.007123
3710.5648,-0.007540
3712.4285,-0.007853
3714.2922,-0.007408
3716.1558,-0.007219
3718.0195,-0.007291
3719.8832,-0.007224
3721.7468,-0.007595
3723.6105,-0.007800
3725.4742,-0.007466
3727.3378,-0.007321
3729.2015,-0.007209
3731.0652,-0.007328
3732.9288,-0.007870
3734.7925,-0.008197
3736.6562,-0.007992
3738.5199,-0.007184
3740.3835,-0.006665
3742.2472,-0.006831
3744.1109,-0.007635
3745.9745,-0.008088
3747.8382,-0.007784
3749.7019,-0.007896
3751.5655,-0.007921
3753.4292,-0.007734
3755.2929,-0.007455
3757.1565,-0.007215
3759.0202,-0.007000
3760.8839,-0.006932
3762.7475,-0.007185
3764.6112,-0.007272
3766.4749,-0.007232
3768.3386,-0.007074
3770.2022,-0.007226
3772.0659,-0.007397
3773.9296,-0.007260
3775.7932,-0.007028
3777.6569,-0.006911
3779.5206,-0.006970
3781.3842,-0.006823
3783.2479,-0.006804
3785.1116,-0.007188
3786.9752,-0.007307
3788.8389,-0.007142
3790.7026,-0.007472
3792.5662,-0.007679
3794.4299,-0.007375
3796.2936,-0.007095
3798.1573,-0.007089
3800.0209,-0.007467
3801.8846,-0.007973
3803.7483,-0.008028
3805.6119,-0.007697
3807.4756,-0.007643
3809.3393,-0.007253
3811.2029,-0.006975
3813.0666,-0.007195
3814.9303,-0.007153
3816.7939,-0.006861
3818.6576,-0.006839
3820.5213,-0.007389
3822.3850,-0.008015
3824.2486,-0.007679
3826.1123,-0.007180
3827.9760,-0.006850
3829.8396,-0.006905
3831.7033,-0.007200
3833.5670,-0.007470
3835.4306,-0.007371
3837.2943,-0.007319
3839.1580,-0.007655
3841.0216,-0.007811
3842.8853,-0.007483
3844.7490,-0.007289
3846.6126,-0.007157
3848.4763,-0.007184
3850.3400,-0.007364
3852.2037,-0.007718
3854.0673,-0.007877
3855.9310,-0.007322
3857.7947,-0.006906
3859.6583,-0.007160
3861.5220,-0.007518
3863.3857,-0.007606
3865.2493,-0.007600
3867.1130,-0.007367
3868.9767,-0.007114
3870.8403,-0.007087
3872.7040,-0.006877
3874.5677,-0.007117
3876.4314,-0.007198
3878.2950,-0.006932
3880.1587,-0.007148
3882.0224,-0.007371
3883.8860,-0.007374
3885.7497,-0.007446
3887.6134,-0.007076
3889.4770,-0.006753
3891.3407,-0.007214
3893.2044,-0.007432
3895.0680,-0.007173
3896.9317,-0.007267
3898.7954,-0.007303
3900.6590,-0.007063
3902.5227,-0.006736
3904.3864,-0.006954
3906.2501,-0.006900
3908.1137,-0.006745
3909.9774,-0.006867
3911.8411,-0.007015
3913.7047,-0.006897
3915.5684,-0.006671
3917.4321,-0.006928
3919.2957,-0.007014
3921.1594,-0.006950
3923.0231,-0.006924
3924.8867,-0.007026
3926.7504,-0.007118
3928.6141,-0.007252
3930.4777,-0.007222
3932.3414,-0.007029
3934.2051,-0.006989
3936.0688,-0.006540
3937.9324,-0.006341
3939.7961,-0.006487
3941.6598,-0.006447
3943.5234,-0.006548
3945.3871,-0.006812
3947.2508,-0.006793
3949.1144,-0.006947
3950.9781,-0.007058
3952.8418,-0.006988
3954.7054,-0.006721
3956.5691,-0.006240
3958.4328,-0.006161
3960.2965,-0.006285
3962.1601,-0.006104
3964.0238,-0.006408
3965.8875,-0.006685
3967.7511,-0.006775
3969.6148,-0.006907
3971.4785,-0.006801
3973.3421,-0.006602
3975.2058,-0.006775
3977.0695,-0.006709
3978.9331,-0.006446
3980.7968,-0.006678
3982.6605,-0.006499
3984.5241,-0.006246
3986.3878,-0.006276
3988.2515,-0.006279
3990.1152,-0.006432
3991.9788,-0.006689
3993.8425,-0.006559
3995.7062,-0.006407
3997.5698,-0.006600
3999.4335,-0.006569
