Wavenumber,Intensity
650.4205,0.040734
652.2841,0.039235
654.1478,0.036833
656.0115,0.037148
657.8751,0.039761
659.7388,0.040190
661.6025,0.038680
663.4661,0.038501
665.3298,0.038588
667.1935,0.038645
669.0571,0.038594
670.9208,0.037477
672.7845,0.036142
674.6481,0.035755
676.5118,0.036199
678.3755,0.035890
680.2392,0.035572
682.1028,0.034599
683.9665,0.033606
685.8302,0.034088
687.6938,0.034830
689.5575,0.033963
691.4212,0.033057
693.2848,0.032440
695.1485,0.031952
697.0122,0.032853
698.8758,0.033410
700.7395,0.032348
702.6032,0.031358
704.4669,0.030999
706.3305,0.030350
708.1942,0.029783
710.0579,0.029448
711.9215,0.029114
713.7852,0.029215
715.6489,0.028884
717.5125,0.028217
719.3762,0.027945
721.2399,0.027767
723.1035,0.027035
724.9672,0.026326
726.8309,0.026472
728.6945,0.026631
730.5582,0.026157
732.4219,0.025311
734.2856,0.024662
736.1492,0.024531
738.0129,0.024534
739.8766,0.024424
741.7402,0.024046
743.6039,0.023438
745.4676,0.023622
747.3312,0.023791
749.1949,0.023229
751.0586,0.022760
752.9222,0.022501
754.7859,0.022374
756.6496,0.022137
758.5132,0.021883
760.3769,0.021645
762.2406,0.021587
764.1043,0.021434
765.9679,0.021377
767.8316,0.021831
769.6953,0.021626
771.5589,0.020830
773.4226,0.020451
775.2863,0.020224
777.1499,0.019928
779.0136,0.019736
780.8773,0.019615
782.7409,0.019479
784.6046,0.019225
786.4683,0.019170
788.3320,0.019020
790.1956,0.018524
792.0593,0.018493
793.9230,0.018570
795.7866,0.018085
797.6503,0.017407
799.5140,0.017063
801.3776,0.017361
803.2413,0.017492
805.1050,0.017165
806.9686,0.017135
808.8323,0.017209
810.6960,0.017005
812.5596,0.016782
814.4233,0.016824
816.2870,0.016906
818.1507,0.016768
820.0143,0.016585
821.8780,0.016513
823.7417,0.016391
825.6053,0.016114
827.4690,0.016100
829.3327,0.016156
831.1963,0.016051
833.0600,0.015919
834.9237,0.015675
836.7873,0.015342
838.6510,0.015000
840.5147,0.014593
842.3784,0.014150
844.2420,0.013930
846.1057,0.013897
847.9694,0.013840
849.8330,0.013699
851.6967,0.013333
853.5604,0.012908
855.4240,0.012903
857.2877,0.013320
859.1514,0.013469
861.0150,0.013273
862.8787,0.013224
864.7424,0.013233
866.6060,0.013200
868.4697,0.013365
870.3334,0.013641
872.1971,0.013715
874.0607,0.013571
875.9244,0.013730
877.7881,0.013834
879.6517,0.013573
881.5154,0.013466
883.3791,0.013243
885.2427,0.012860
887.1064,0.012779
888.9701,0.012758
890.8337,0.012923
892.6974,0.013279
894.5611,0.013330
896.4247,0.013332
898.2884,0.013349
900.1521,0.013077
902.0158,0.012839
903.8794,0.012756
905.7431,0.012610
907.6068,0.012437
909.4704,0.012459
911.3341,0.012650
913.1978,0.012754
915.0614,0.012861
916.9251,0.013118
918.7888,0.013270
920.6524,0.013395
922.5161,0.013494
924.3798,0.013579
926.2435,0.013773
928.1071,0.013783
929.9708,0.013785
931.8345,0.014072
933.6981,0.014433
935.5618,0.014671
937.4255,0.015029
939.2891,0.015310
941.1528,0.015520
943.0165,0.015762
944.8801,0.016060
946.7438,0.016484
948.6075,0.016695
950.4711,0.016866
952.3348,0.017171
954.1985,0.017481
956.0622,0.017813
957.9258,0.018191
959.7895,0.018693
961.6532,0.019516
963.5168,0.020285
965.3805,0.020960
967.2442,0.021709
969.1078,0.022282
970.9715,0.022719
972.8352,0.023181
974.6988,0.023763
976.5625,0.024350
978.4262,0.024869
980.2899,0.025520
982.1535,0.026320
984.0172,0.027114
985.8809,0.027764
987.7445,0.028358
989.6082,0.028958
991.4719,0.029538
993.3355,0.030202
995.1992,0.030878
997.0629,0.031545
998.9265,0.032216
1000.7902,0.032741
1002.6539,0.033304
1004.5175,0.033949
1006.3812,0.034605
1008.2449,0.035466
1010.1086,0.036438
1011.9722,0.037420
1013.8359,0.038516
1015.6996,0.039548
1017.5632,0.040521
1019.4269,0.041536
1021.2906,0.042395
1023.1542,0.043057
1025.0179,0.043595
1026.8816,0.044137
1028.7452,0.044671
1030.6089,0.045042
1032.4726,0.045251
1034.3362,0.045374
1036.1999,0.045405
1038.0636,0.045283
1039.9273,0.045139
1041.7909,0.045061
1043.6546,0.044978
1045.5183,0.044890
1047.3819,0.044827
1049.2456,0.044734
1051.1093,0.044628
1052.9729,0.044659
1054.8366,0.044772
1056.7003,0.044885
1058.5639,0.044988
1060.4276,0.044998
1062.2913,0.044923
1064.1550,0.044765
1066.0186,0.044705
1067.8823,0.044732
1069.7460,0.044590
1071.6096,0.044270
1073.4733,0.043917
1075.3370,0.043522
1077.2006,0.042899
1079.0643,0.042062
1080.9280,0.041189
1082.7916,0.040227
1084.6553,0.039173
1086.5190,0.038116
1088.3826,0.037047
1090.2463,0.036104
1092.1100,0.035327
1093.9737,0.034592
1095.8373,0.033906
1097.7010,0.033207
1099.5647,0.032658
1101.4283,0.032128
1103.2920,0.031605
1105.1557,0.031206
1107.0193,0.030820
1108.8830,0.030417
1110.7467,0.030004
1112.6103,0.029539
1114.4740,0.029013
1116.3377,0.028537
1118.2014,0.028043
1120.0650,0.027418
1121.9287,0.026815
1123.7924,0.026307
1125.6560,0.025716
1127.5197,0.025109
1129.3834,0.024590
1131.2470,0.024117
1133.1107,0.023573
1134.9744,0.022932
1136.8380,0.022409
1138.7017,0.022014
1140.5654,0.021555
1142.4290,0.021201
1144.2927,0.021069
1146.1564,0.020999
1148.0201,0.020970
1149.8837,0.021041
1151.7474,0.021113
1153.6111,0.021098
1155.4747,0.021070
1157.3384,0.020963
1159.2021,0.020850
1161.0657,0.020737
1162.9294,0.020564
1164.7931,0.020208
1166.6567,0.019786
1168.5204,0.019335
1170.3841,0.018698
1172.2477,0.017997
1174.1114,0.017317
1175.9751,0.016596
1177.8388,0.015997
1179.7024,0.015569
1181.5661,0.015210
1183.4298,0.015094
1185.2934,0.015258
1187.1571,0.015329
1189.0208,0.015367
1190.8844,0.015583
1192.7481,0.015926
1194.6118,0.016250
1196.4754,0.016609
1198.3391,0.016954
1200.2028,0.017384
1202.0665,0.017870
1203.9301,0.018244
1205.7938,0.018509
1207.6575,0.018753
1209.5211,0.018932
1211.3848,0.019111
1213.2485,0.019396
1215.1121,0.019709
1216.9758,0.020139
1218.8395,0.020616
1220.7031,0.021011
1222.5668,0.021426
1224.4305,0.021988
1226.2941,0.022552
1228.1578,0.022966
1230.0215,0.023332
1231.8852,0.023724
1233.7488,0.024121
1235.6125,0.024444
1237.4762,0.024632
1239.3398,0.024679
1241.2035,0.024672
1243.0672,0.024672
1244.9308,0.024661
1246.7945,0.024511
1248.6582,0.024290
1250.5218,0.024061
1252.3855,0.023760
1254.2492,0.023450
1256.1129,0.023290
1257.9765,0.023287
1259.8402,0.023180
1261.7039,0.022846
1263.5675,0.022727
1265.4312,0.022823
1267.2949,0.022727
1269.1585,0.022604
1271.0222,0.022594
1272.8859,0.022635
1274.7495,0.022680
1276.6132,0.022633
1278.4769,0.022625
1280.3405,0.022684
1282.2042,0.022837
1284.0679,0.022962
1285.9316,0.022949
1287.7952,0.022981
1289.6589,0.023197
1291.5226,0.023483
1293.3862,0.023760
1295.2499,0.024003
1297.1136,0.024181
1298.9772,0.024435
1300.8409,0.024735
1302.7046,0.024977
1304.5682,0.025307
1306.4319,0.025670
1308.2956,0.025949
1310.1592,0.026277
1312.0229,0.026586
1313.8866,0.026730
1315.7503,0.026684
1317.6139,0.026671
1319.4776,0.026631
1321.3413,0.026489
1323.2049,0.026277
1325.0686,0.026069
1326.9323,0.025881
1328.7959,0.025815
1330.6596,0.025993
1332.5233,0.026010
1334.3869,0.025869
1336.2506,0.025904
1338.1143,0.026138
1339.9780,0.026448
1341.8416,0.026466
1343.7053,0.026337
1345.5690,0.026363
1347.4326,0.026365
1349.2963,0.026332
1351.1600,0.026355
1353.0236,0.026374
1354.8873,0.026451
1356.7510,0.026494
1358.6146,0.026443
1360.4783,0.026640
1362.3420,0.027267
1364.2056,0.027777
1366.0693,0.028067
1367.9330,0.028561
1369.7967,0.028997
1371.6603,0.029327
1373.5240,0.029871
1375.3877,0.030554
1377.2513,0.030746
1379.1150,0.030902
1380.9787,0.031046
1382.8423,0.031047
1384.7060,0.031152
1386.5697,0.031553
1388.4333,0.031930
1390.2970,0.031817
1392.1607,0.031721
1394.0244,0.032157
1395.8880,0.032663
1397.7517,0.032701
1399.6154,0.032857
1401.4790,0.032662
1403.3427,0.032436
1405.2064,0.032484
1407.0700,0.032151
1408.9337,0.031573
1410.7974,0.031102
1412.6610,0.030681
1414.5247,0.030075
1416.3884,0.029566
1418.2520,0.029594
1420.1157,0.029813
1421.9794,0.029384
1423.8431,0.029187
1425.7067,0.029122
1427.5704,0.029008
1429.4341,0.029436
1431.2977,0.029715
1433.1614,0.029643
1435.0251,0.030078
1436.8887,0.031501
1438.7524,0.032088
1440.6161,0.031868
1442.4797,0.031895
1444.3434,0.031926
1446.2071,0.031975
1448.0707,0.032251
1449.9344,0.032324
1451.7981,0.031774
1453.6618,0.031092
1455.5254,0.030744
1457.3891,0.031345
1459.2528,0.030749
1461.1164,0.029390
1462.9801,0.028532
1464.8438,0.028435
1466.7074,0.027768
1468.5711,0.026635
1470.4348,0.025531
1472.2984,0.024923
1474.1621,0.024530
1476.0258,0.023919
1477.8895,0.023318
1479.7531,0.022844
1481.6168,0.022761
1483.4805,0.022597
1485.3441,0.022506
1487.2078,0.022959
1489.0715,0.024002
1490.9351,0.025042
1492.7988,0.025434
1494.6625,0.025918
1496.5261,0.027322
1498.3898,0.028794
1500.2535,0.029335
1502.1171,0.029309
1503.9808,0.029486
1505.8445,0.031537
1507.7082,0.035501
1509.5718,0.036186
1511.4355,0.036635
1513.2992,0.037468
1515.1628,0.038104
1517.0265,0.038908
1518.8902,0.039313
1520.7538,0.039935
1522.6175,0.041196
1524.4812,0.041694
1526.3448,0.042777
1528.2085,0.043320
1530.0722,0.043298
1531.9359,0.043725
1533.7995,0.044802
1535.6632,0.044619
1537.5269,0.043804
1539.3905,0.044544
1541.2542,0.046288
1543.1179,0.046180
1544.9815,0.045658
1546.8452,0.044905
1548.7089,0.044050
1550.5725,0.043420
1552.4362,0.042269
1554.2999,0.041039
1556.1635,0.039872
1558.0272,0.039246
1559.8909,0.039938
1561.7546,0.038561
1563.6182,0.037163
1565.4819,0.036271
1567.3456,0.035434
1569.2092,0.034871
1571.0729,0.034331
1572.9366,0.033233
1574.8002,0.032665
1576.6639,0.032824
1578.5276,0.032375
1580.3912,0.031657
1582.2549,0.031251
1584.1186,0.031164
1585.9822,0.031225
1587.8459,0.031386
1589.7096,0.031657
1591.5733,0.031972
1593.4369,0.032483
1595.3006,0.033124
1597.1643,0.033802
1599.0279,0.034303
1600.8916,0.035086
1602.7553,0.036246
1604.6189,0.037489
1606.4826,0.038634
1608.3463,0.039963
1610.2099,0.041353
1612.0736,0.042423
1613.9373,0.043055
1615.8010,0.044705
1617.6646,0.047145
1619.5283,0.047874
1621.3920,0.048423
1623.2556,0.049941
1625.1193,0.051091
1626.9830,0.051451
1628.8466,0.051815
1630.7103,0.051763
1632.5740,0.051452
1634.4376,0.051903
1636.3013,0.052970
1638.1650,0.052562
1640.0286,0.051514
1641.8923,0.050629
1643.7560,0.049766
1645.6197,0.049239
1647.4833,0.048887
1649.3470,0.047769
1651.2107,0.046163
1653.0743,0.046037
1654.9380,0.045576
1656.8017,0.043683
1658.6653,0.041931
1660.5290,0.040410
1662.3927,0.038915
1664.2563,0.037549
1666.1200,0.035913
1667.9837,0.034410
1669.8474,0.032956
1671.7110,0.031391
1673.5747,0.029621
1675.4384,0.028035
1677.3020,0.026444
1679.1657,0.024541
1681.0294,0.022751
1682.8930,0.020867
1684.7567,0.018607
1686.6204,0.016829
1688.4840,0.015181
1690.3477,0.013359
1692.2114,0.011597
1694.0750,0.009647
1695.9387,0.007401
1697.8024,0.005838
1699.6661,0.003780
1701.5297,0.002249
1703.3934,0.001357
1705.2571,0.000198
1707.1207,-0.000804
1708.9844,-0.001455
1710.8481,-0.001917
1712.7117,-0.002243
1714.5754,-0.002854
1716.4391,-0.003650
1718.3027,-0.004289
1720.1664,-0.003933
1722.0301,-0.003850
1723.8937,-0.003917
1725.7574,-0.003931
1727.6211,-0.004118
1729.4848,-0.004299
1731.3484,-0.004149
1733.2121,-0.004300
1735.0758,-0.004116
1736.9394,-0.003769
1738.8031,-0.003860
1740.6668,-0.004004
1742.5304,-0.004001
1744.3941,-0.003961
1746.2578,-0.004035
1748.1214,-0.004392
1749.9851,-0.004837
1751.8488,-0.005121
1753.7125,-0.005091
1755.5761,-0.005374
1757.4398,-0.005704
1759.3035,-0.006002
1761.1671,-0.006374
1763.0308,-0.006396
1764.8945,-0.006403
1766.7581,-0.006751
1768.6218,-0.006747
1770.4855,-0.006630
1772.3491,-0.006722
1774.2128,-0.006622
1776.0765,-0.006611
1777.9401,-0.006707
1779.8038,-0.006821
1781.6675,-0.006586
1783.5312,-0.006415
1785.3948,-0.006481
1787.2585,-0.006485
1789.1222,-0.006575
1790.9858,-0.006821
1792.8495,-0.006801
1794.7132,-0.006704
1796.5768,-0.006648
1798.4405,-0.006739
1800.3042,-0.006876
1802.1678,-0.006860
1804.0315,-0.006856
1805.8952,-0.006835
1807.7589,-0.006823
1809.6225,-0.006957
1811.4862,-0.007101
1813.3499,-0.007076
1815.2135,-0.006976
1817.0772,-0.007004
1818.9409,-0.006912
1820.8045,-0.006685
1822.6682,-0.006575
1824.5319,-0.006537
1826.3955,-0.006598
1828.2592,-0.006729
1830.1229,-0.006672
1831.9865,-0.006553
1833.8502,-0.006642
1835.7139,-0.006759
1837.5776,-0.006539
1839.4412,-0.006409
1841.3049,-0.006494
1843.1686,-0.006443
1845.0322,-0.006728
1846.8959,-0.006880
1848.7596,-0.006581
1850.6232,-0.006412
1852.4869,-0.006416
1854.3506,-0.006483
1856.2142,-0.006464
1858.0779,-0.006238
1859.9416,-0.006199
1861.8052,-0.006346
1863.6689,-0.006392
1865.5326,-0.006396
1867.3963,-0.006456
1869.2599,-0.006069
1871.1236,-0.005820
1872.9873,-0.005971
1874.8509,-0.006334
1876.7146,-0.006515
1878.5783,-0.006235
1880.4419,-0.006118
1882.3056,-0.006102
1884.1693,-0.006036
1886.0329,-0.005982
1887.8966,-0.006414
1889.7603,-0.006370
1891.6240,-0.006034
1893.4876,-0.006368
1895.3513,-0.006244
1897.2150,-0.005979
1899.0786,-0.006060
1900.9423,-0.005957
1902.8060,-0.005636
1904.6696,-0.005337
1906.5333,-0.005488
1908.3970,-0.005518
1910.2606,-0.005243
1912.1243,-0.005697
1913.9880,-0.005624
1915.8516,-0.005236
1917.7153,-0.005441
1919.5790,-0.005310
1921.4427,-0.005493
1923.3063,-0.005552
1925.1700,-0.005232
1927.0337,-0.005295
1928.8973,-0.005357
1930.7610,-0.005365
1932.6247,-0.005769
1934.4883,-0.005837
1936.3520,-0.005468
1938.2157,-0.005470
1940.0793,-0.005345
1941.9430,-0.004557
1943.8067,-0.004571
1945.6704,-0.004802
1947.5340,-0.005308
1949.3977,-0.005561
1951.2614,-0.004714
1953.1250,-0.004203
1954.9887,-0.004853
1956.8524,-0.004895
1958.7160,-0.003723
1960.5797,-0.003299
1962.4434,-0.003240
1964.3070,-0.003757
1966.1707,-0.003964
1968.0344,-0.003674
1969.8980,-0.003034
1971.7617,-0.002861
1973.6254,-0.004568
1975.4891,-0.004941
1977.3527,-0.003160
1979.2164,-0.001894
1981.0801,-0.001177
1982.9437,-0.001780
1984.8074,-0.002319
1986.6711,-0.002548
1988.5347,-0.002948
1990.3984,-0.002848
1992.2621,-0.002755
1994.1257,-0.001948
1995.9894,-0.001103
1997.8531,-0.001843
1999.7167,-0.002749
2001.5804,-0.003345
2003.4441,-0.003349
2005.3078,-0.003310
2007.1714,-0.003224
2009.0351,-0.002657
2010.8988,-0.001644
2012.7624,-0.000834
2014.6261,-0.001197
2016.4898,-0.002247
2018.3534,-0.003002
2020.2171,-0.002464
2022.0808,-0.001825
2023.9444,-0.002002
2025.8081,-0.001959
2027.6718,-0.001652
2029.5355,-0.001107
2031.3991,-0.000647
2033.2628,-0.001412
2035.1265,-0.001096
2036.9901,-0.000944
2038.8538,-0.002069
2040.7175,-0.001752
2042.5811,-0.001369
2044.4448,-0.002202
2046.3085,-0.001896
2048.1721,-0.000686
2050.0358,-0.000507
2051.8995,-0.001272
2053.7631,-0.001755
2055.6268,-0.001702
2057.4905,-0.001740
2059.3542,-0.002217
2061.2178,-0.002446
2063.0815,-0.001728
2064.9452,-0.001658
2066.8088,-0.002407
2068.6725,-0.002312
2070.5362,-0.002167
2072.3998,-0.002436
2074.2635,-0.002584
2076.1272,-0.003082
2077.9908,-0.003198
2079.8545,-0.002621
2081.7182,-0.002322
2083.5819,-0.002351
2085.4455,-0.002369
2087.3092,-0.002833
2089.1729,-0.003182
2091.0365,-0.003168
2092.9002,-0.003171
2094.7639,-0.003488
2096.6275,-0.003600
2098.4912,-0.003684
2100.3549,-0.003361
2102.2185,-0.002558
2104.0822,-0.002426
2105.9459,-0.002689
2107.8095,-0.002682
2109.6732,-0.003046
2111.5369,-0.002980
2113.4006,-0.002658
2115.2642,-0.003119
2117.1279,-0.003316
2118.9916,-0.003620
2120.8552,-0.003988
2122.7189,-0.003726
2124.5826,-0.003612
2126.4462,-0.003754
2128.3099,-0.003704
2130.1736,-0.003610
2132.0372,-0.003697
2133.9009,-0.004232
2135.7646,-0.004380
2137.6282,-0.003624
2139.4919,-0.003309
2141.3556,-0.003902
2143.2193,-0.003900
2145.0829,-0.002646
2146.9466,-0.002502
2148.8103,-0.002903
2150.6739,-0.002326
2152.5376,-0.002543
2154.4013,-0.002413
2156.2649,-0.001875
2158.1286,-0.001263
2159.9923,0.001122
2161.8559,0.002026
2163.7196,0.000341
2165.5833,-0.000361
2167.4470,0.000192
2169.3106,-0.000141
2171.1743,-0.001156
2173.0380,-0.001507
2174.9016,-0.001185
2176.7653,-0.000786
2178.6290,-0.001219
2180.4926,-0.002187
2182.3563,-0.001960
2184.2200,-0.001213
2186.0836,-0.000665
2187.9473,-0.000581
2189.8110,-0.000582
2191.6746,-0.000048
2193.5383,-0.000222
2195.4020,-0.001199
2197.2657,-0.001043
2199.1293,-0.000610
2200.9930,-0.000940
2202.8567,-0.001612
2204.7203,-0.002163
2206.5840,-0.001302
2208.4477,-0.000857
2210.3113,-0.001029
2212.1750,0.000048
2214.0387,-0.000202
2215.9023,-0.001293
2217.7660,-0.000677
2219.6297,-0.000847
2221.4934,-0.001336
2223.3570,-0.000516
2225.2207,-0.000257
2227.0844,-0.001184
2228.9480,-0.002123
2230.8117,-0.002066
2232.6754,-0.001704
2234.5390,-0.001554
2236.4027,-0.001669
2238.2664,-0.001975
2240.1300,-0.002235
2241.9937,-0.001909
2243.8574,-0.001288
2245.7210,-0.001488
2247.5847,-0.001731
2249.4484,-0.001530
2251.3121,-0.001691
2253.1757,-0.002036
2255.0394,-0.001471
2256.9031,-0.001277
2258.7667,-0.002160
2260.6304,-0.002720
2262.4941,-0.002832
2264.3577,-0.002500
2266.2214,-0.002160
2268.0851,-0.002052
2269.9487,-0.001544
2271.8124,-0.001316
2273.6761,-0.001758
2275.5397,-0.001744
2277.4034,-0.001380
2279.2671,-0.001576
2281.1308,-0.001872
2282.9944,-0.001748
2284.8581,-0.001615
2286.7218,-0.001763
2288.5854,-0.001998
2290.4491,-0.002173
2292.3128,-0.002146
2294.1764,-0.002193
2296.0401,-0.002631
2297.9038,-0.002894
2299.7674,-0.002869
2301.6311,-0.002718
2303.4948,-0.002672
2305.3585,-0.002726
2307.2221,-0.002760
2309.0858,-0.002745
2310.9495,-0.002692
2312.8131,-0.002815
2314.6768,-0.002852
2316.5405,-0.002565
2318.4041,-0.002297
2320.2678,-0.002258
2322.1315,-0.002118
2323.9951,-0.002361
2325.8588,-0.003153
2327.7225,-0.003748
2329.5861,-0.003839
2331.4498,-0.003696
2333.3135,-0.003594
2335.1772,-0.003577
2337.0408,-0.003494
2338.9045,-0.003558
2340.7682,-0.003932
2342.6318,-0.003728
2344.4955,-0.003236
2346.3592,-0.003239
2348.2228,-0.003590
2350.0865,-0.004007
2351.9502,-0.003934
2353.8138,-0.003590
2355.6775,-0.003571
2357.5412,-0.003839
2359.4049,-0.004216
2361.2685,-0.003940
2363.1322,-0.003637
2364.9959,-0.003360
2366.8595,-0.003016
2368.7232,-0.002997
2370.5869,-0.002776
2372.4505,-0.002558
2374.3142,-0.003005
2376.1779,-0.003382
2378.0415,-0.003472
2379.9052,-0.003589
2381.7689,-0.003341
2383.6325,-0.003072
2385.4962,-0.003268
2387.3599,-0.003402
2389.2236,-0.003456
2391.0872,-0.003537
2392.9509,-0.003447
2394.8146,-0.003520
2396.6782,-0.003632
2398.5419,-0.003559
2400.4056,-0.003227
2402.2692,-0.002933
2404.1329,-0.002987
2405.9966,-0.003112
2407.8602,-0.003203
2409.7239,-0.003149
2411.5876,-0.003076
2413.4512,-0.003018
2415.3149,-0.002845
2417.1786,-0.002811
2419.0423,-0.002897
2420.9059,-0.002847
2422.7696,-0.002835
2424.6333,-0.002832
2426.4969,-0.002894
2428.3606,-0.002935
2430.2243,-0.002576
2432.0879,-0.002223
2433.9516,-0.002202
2435.8153,-0.002441
2437.6789,-0.002701
2439.5426,-0.002465
2441.4063,-0.002164
2443.2700,-0.002218
2445.1336,-0.002414
2446.9973,-0.002491
2448.8610,-0.002616
2450.7246,-0.002673
2452.5883,-0.002355
2454.4520,-0.002193
2456.3156,-0.002327
2458.1793,-0.002059
2460.0430,-0.001723
2461.9066,-0.001832
2463.7703,-0.001997
2465.6340,-0.002156
2467.4976,-0.002267
2469.3613,-0.002210
2471.2250,-0.002225
2473.0887,-0.002436
2474.9523,-0.002620
2476.8160,-0.002271
2478.6797,-0.001693
2480.5433,-0.001776
2482.4070,-0.002005
2484.2707,-0.001905
2486.1343,-0.002014
2487.9980,-0.002050
2489.8617,-0.002019
2491.7253,-0.001871
2493.5890,-0.001590
2495.4527,-0.001627
2497.3164,-0.001674
2499.1800,-0.001666
2501.0437,-0.001946
2502.9074,-0.001952
2504.7710,-0.001770
2506.6347,-0.001715
2508.4984,-0.001734
2510.3620,-0.001508
2512.2257,-0.001398
2514.0894,-0.001696
2515.9530,-0.001913
2517.8167,-0.002105
2519.6804,-0.001837
2521.5440,-0.001435
2523.4077,-0.001420
2525.2714,-0.001515
2527.1351,-0.001470
2528.9987,-0.001303
2530.8624,-0.001301
2532.7261,-0.001394
2534.5897,-0.001222
2536.4534,-0.001016
2538.3171,-0.001134
2540.1807,-0.001004
2542.0444,-0.001159
2543.9081,-0.001463
2545.7717,-0.001388
2547.6354,-0.001266
2549.4991,-0.001343
2551.3627,-0.001322
2553.2264,-0.001179
2555.0901,-0.001094
2556.9538,-0.000967
2558.8174,-0.000775
2560.6811,-0.000895
2562.5448,-0.001213
2564.4084,-0.001044
2566.2721,-0.000843
2568.1358,-0.000837
2569.9994,-0.000704
2571.8631,-0.000756
2573.7268,-0.001011
2575.5904,-0.001126
2577.4541,-0.000757
2579.3178,-0.000545
2581.1815,-0.000904
2583.0451,-0.000907
2584.9088,-0.000717
2586.7725,-0.000657
2588.6361,-0.000410
2590.4998,-0.000180
2592.3635,-0.000087
2594.2271,-0.000283
2596.0908,-0.000519
2597.9545,-0.000550
2599.8181,-0.000483
2601.6818,-0.000385
2603.5455,-0.000317
2605.4091,-0.000287
2607.2728,-0.000303
2609.1365,-0.000264
2611.0002,-0.000141
2612.8638,-0.000107
2614.7275,-0.000051
2616.5912,0.000028
2618.4548,0.000048
2620.3185,0.000002
2622.1822,0.000062
2624.0458,0.000046
2625.9095,0.000011
2627.7732,-0.000040
2629.6368,-0.000028
2631.5005,0.000079
2633.3642,0.000168
2635.2279,0.000274
2637.0915,0.000208
2638.9552,0.000090
2640.8189,0.000205
2642.6825,0.000379
2644.5462,0.000393
2646.4099,0.000337
2648.2735,0.000328
2650.1372,0.000296
2652.0009,0.000197
2653.8645,0.000209
2655.7282,0.000288
2657.5919,0.000276
2659.4555,0.000111
2661.3192,0.000119
2663.1829,0.000160
2665.0466,0.000026
2666.9102,-0.000003
2668.7739,0.000055
2670.6376,0.000061
2672.5012,0.000027
2674.3649,-0.000005
2676.2286,-0.000069
2678.0922,0.000002
2679.9559,0.000140
2681.8196,0.000281
2683.6832,0.000233
2685.5469,0.000197
2687.4106,0.000230
2689.2742,0.000178
2691.1379,0.000282
2693.0016,0.000399
2694.8653,0.000398
2696.7289,0.000473
2698.5926,0.000562
2700.4563,0.000536
2702.3199,0.000435
2704.1836,0.000417
2706.0473,0.000574
2707.9109,0.000758
2709.7746,0.000855
2711.6383,0.000915
2713.5019,0.000869
2715.3656,0.000871
2717.2293,0.000933
2719.0930,0.000924
2720.9566,0.001035
2722.8203,0.001132
2724.6840,0.001086
2726.5476,0.001136
2728.4113,0.001350
2730.2750,0.001467
2732.1386,0.001524
2734.0023,0.001452
2735.8660,0.001289
2737.7296,0.001375
2739.5933,0.001530
2741.4570,0.001557
2743.3206,0.001596
2745.1843,0.001706
2747.0480,0.001782
2748.9117,0.001812
2750.7753,0.001882
2752.6390,0.002019
2754.5027,0.002145
2756.3663,0.002165
2758.2300,0.002135
2760.0937,0.002151
2761.9573,0.002353
2763.8210,0.002356
2765.6847,0.002402
2767.5483,0.002456
2769.4120,0.002411
2771.2757,0.002533
2773.1394,0.002596
2775.0030,0.002669
2776.8667,0.002843
2778.7304,0.003113
2780.5940,0.003166
2782.4577,0.003145
2784.3214,0.003105
2786.1850,0.003243
2788.0487,0.003326
2789.9124,0.003282
2791.7760,0.003395
2793.6397,0.003547
2795.5034,0.003779
2797.3670,0.003922
2799.2307,0.003918
2801.0944,0.004044
2802.9581,0.004108
2804.8217,0.004063
2806.6854,0.004242
2808.5491,0.004608
2810.4127,0.004819
2812.2764,0.004643
2814.1401,0.004621
2816.0037,0.004777
2817.8674,0.005031
2819.7311,0.005151
2821.5947,0.005058
2823.4584,0.005118
2825.3221,0.005335
2827.1857,0.005710
2829.0494,0.006106
2830.9131,0.006120
2832.7768,0.006204
2834.6404,0.006407
2836.5041,0.006549
2838.3678,0.006833
2840.2314,0.007116
2842.0951,0.007503
2843.9588,0.008155
2845.8224,0.008763
2847.6861,0.009350
2849.5498,0.009709
2851.4134,0.009897
2853.2771,0.010067
2855.1408,0.010070
2857.0045,0.009947
2858.8681,0.009782
2860.7318,0.009591
2862.5955,0.009464
2864.4591,0.009500
2866.3228,0.009669
2868.1865,0.009646
2870.0501,0.009795
2871.9138,0.009996
2873.7775,0.010047
2875.6411,0.010030
2877.5048,0.010174
2879.3685,0.010040
2881.2321,0.009904
2883.0958,0.010128
2884.9595,0.010420
2886.8232,0.010517
2888.6868,0.010425
2890.5505,0.010501
2892.4142,0.010844
2894.2778,0.011081
2896.1415,0.011197
2898.0052,0.011393
2899.8688,0.011919
2901.7325,0.012116
2903.5962,0.012065
2905.4598,0.012147
2907.3235,0.012663
2909.1872,0.013051
2911.0509,0.013391
2912.9145,0.013819
2914.7782,0.014306
2916.6419,0.014841
2918.5055,0.014961
2920.3692,0.015003
2922.2329,0.015385
2924.0965,0.015450
2925.9602,0.015353
2927.8239,0.015298
2929.6875,0.015032
2931.5512,0.014720
2933.4149,0.014395
2935.2785,0.013883
2937.1422,0.013750
2939.0059,0.013617
2940.8696,0.013310
2942.7332,0.013016
2944.5969,0.012727
2946.4606,0.012519
2948.3242,0.012350
2950.1879,0.012231
2952.0516,0.012416
2953.9152,0.012555
2955.7789,0.012463
2957.6426,0.012259
2959.5062,0.012330
2961.3699,0.012574
2963.2336,0.012274
2965.0972,0.011769
2966.9609,0.011489
2968.8246,0.011177
2970.6883,0.011038
2972.5519,0.011058
2974.4156,0.010614
2976.2793,0.010207
2978.1429,0.010351
2980.0066,0.010313
2981.8703,0.009958
2983.7339,0.009720
2985.5976,0.009950
2987.4613,0.009789
2989.3249,0.009185
2991.1886,0.009094
2993.0523,0.009312
2994.9160,0.009336
2996.7796,0.009241
2998.6433,0.009075
3000.5070,0.009214
3002.3706,0.009258
3004.2343,0.009196
3006.0980,0.009695
3007.9616,0.010056
3009.8253,0.010063
3011.6890,0.009977
3013.5526,0.009828
3015.4163,0.009685
3017.2800,0.009604
3019.1436,0.009732
3021.0073,0.010276
3022.8710,0.010561
3024.7347,0.010590
3026.5983,0.010693
3028.4620,0.011070
3030.3257,0.011482
3032.1893,0.011412
3034.0530,0.011319
3035.9167,0.011597
3037.7803,0.011832
3039.6440,0.011844
3041.5077,0.011869
3043.3713,0.012133
3045.2350,0.012308
3047.0987,0.012484
3048.9624,0.012865
3050.8260,0.012942
3052.6897,0.012737
3054.5534,0.012588
3056.4170,0.013079
3058.2807,0.013223
3060.1444,0.013268
3062.0080,0.013517
3063.8717,0.013821
3065.7354,0.013973
3067.5990,0.014045
3069.4627,0.013954
3071.3264,0.014083
3073.1900,0.014154
3075.0537,0.014326
3076.9174,0.014397
3078.7811,0.014457
3080.6447,0.014393
3082.5084,0.014431
3084.3721,0.014616
3086.2357,0.014444
3088.0994,0.014221
3089.9631,0.014111
3091.8267,0.014287
3093.6904,0.014458
3095.5541,0.014633
3097.4177,0.014780
3099.2814,0.014632
3101.1451,0.014684
3103.0087,0.014839
3104.8724,0.015023
3106.7361,0.015130
3108.5998,0.015006
3110.4634,0.014946
3112.3271,0.015325
3114.1908,0.015691
3116.0544,0.015643
3117.9181,0.015287
3119.7818,0.015421
3121.6454,0.015972
3123.5091,0.016245
3125.3728,0.015985
3127.2364,0.015857
3129.1001,0.016000
3130.9638,0.016193
3132.8275,0.016327
3134.6911,0.016785
3136.5548,0.017129
3138.4185,0.017425
3140.2821,0.017388
3142.1458,0.017085
3144.0095,0.017229
3145.8731,0.017906
3147.7368,0.018463
3149.6005,0.018664
3151.4641,0.018613
3153.3278,0.018677
3155.1915,0.018698
3157.0551,0.018839
3158.9188,0.019163
3160.7825,0.019585
3162.6462,0.020001
3164.5098,0.020229
3166.3735,0.020330
3168.2372,0.020346
3170.1008,0.020558
3171.9645,0.020615
3173.8282,0.020583
3175.6918,0.020898
3177.5555,0.021256
3179.4192,0.021824
3181.2828,0.022195
3183.1465,0.022508
3185.0102,0.022803
3186.8739,0.022980
3188.7375,0.022719
3190.6012,0.022759
3192.4649,0.022905
3194.3285,0.023099
3196.1922,0.023295
3198.0559,0.023286
3199.9195,0.023334
3201.7832,0.023871
3203.6469,0.024276
3205.5105,0.024247
3207.3742,0.023977
3209.2379,0.024051
3211.1015,0.024434
3212.9652,0.024482
3214.8289,0.024222
3216.6926,0.024462
3218.5562,0.024468
3220.4199,0.024734
3222.2836,0.024997
3224.1472,0.025151
3226.0109,0.025152
3227.8746,0.025209
3229.7382,0.025267
3231.6019,0.025493
3233.4656,0.025555
3235.3292,0.025428
3237.1929,0.025526
3239.0566,0.025837
3240.9202,0.025869
3242.7839,0.025866
3244.6476,0.026115
3246.5113,0.026401
3248.3749,0.026389
3250.2386,0.026353
3252.1023,0.026058
3253.9659,0.026089
3255.8296,0.026578
3257.6933,0.027033
3259.5569,0.027201
3261.4206,0.027216
3263.2843,0.027299
3265.1479,0.027664
3267.0116,0.027783
3268.8753,0.027957
3270.7390,0.027852
3272.6026,0.027586
3274.4663,0.027143
3276.3300,0.027049
3278.1936,0.027413
3280.0573,0.027448
3281.9210,0.027242
3283.7846,0.027054
3285.6483,0.026977
3287.5120,0.027314
3289.3756,0.027318
3291.2393,0.027034
3293.1030,0.026968
3294.9666,0.026774
3296.8303,0.026234
3298.6940,0.026219
3300.5577,0.026369
3302.4213,0.026500
3304.2850,0.026347
3306.1487,0.025940
3308.0123,0.025562
3309.8760,0.025631
3311.7397,0.025492
3313.6033,0.024928
3315.4670,0.024876
3317.3307,0.025125
3319.1943,0.024982
3321.0580,0.024782
3322.9217,0.024769
3324.7854,0.024716
3326.6490,0.024436
3328.5127,0.024345
3330.3764,0.024240
3332.2400,0.024454
3334.1037,0.024603
3335.9674,0.024516
3337.8310,0.023985
3339.6947,0.023637
3341.5584,0.023507
3343.4220,0.023597
3345.2857,0.023460
3347.1494,0.023265
3349.0130,0.023222
3350.8767,0.023422
3352.7404,0.023223
3354.6041,0.023170
3356.4677,0.022958
3358.3314,0.022535
3360.1951,0.022816
3362.0587,0.023051
3363.9224,0.022556
3365.7861,0.022273
3367.6497,0.021882
3369.5134,0.021650
3371.3771,0.021827
3373.2407,0.021960
3375.1044,0.021590
3376.9681,0.021343
3378.8317,0.021145
3380.6954,0.021209
3382.5591,0.021483
3384.4228,0.021329
3386.2864,0.020512
3388.1501,0.020477
3390.0138,0.020742
3391.8774,0.020054
3393.7411,0.019499
3395.6048,0.019996
3397.4684,0.020394
3399.3321,0.020421
3401.1958,0.020018
3403.0594,0.019600
3404.9231,0.019349
3406.7868,0.019086
3408.6505,0.019009
3410.5141,0.019050
3412.3778,0.019012
3414.2415,0.019018
3416.1051,0.018848
3417.9688,0.018566
3419.8325,0.018441
3421.6961,0.018228
3423.5598,0.017983
3425.4235,0.017654
3427.2871,0.017525
3429.1508,0.017483
3431.0145,0.017272
3432.8781,0.017076
3434.7418,0.016796
3436.6055,0.017057
3438.4692,0.017012
3440.3328,0.017019
3442.1965,0.017004
3444.0602,0.016228
3445.9238,0.015508
3447.7875,0.014922
3449.6512,0.014861
3451.5148,0.014760
3453.3785,0.014839
3455.2422,0.015145
3457.1058,0.015228
3458.9695,0.014931
3460.8332,0.014336
3462.6969,0.014112
3464.5605,0.013901
3466.4242,0.013266
3468.2879,0.012766
3470.1515,0.012914
3472.0152,0.013006
3473.8789,0.012477
3475.7425,0.012288
3477.6062,0.012270
3479.4699,0.012234
3481.3335,0.012088
3483.1972,0.011564
3485.0609,0.011015
3486.9245,0.010103
3488.7882,0.009757
3490.6519,0.010229
3492.5156,0.010034
3494.3792,0.009885
3496.2429,0.009538
3498.1066,0.008550
3499.9702,0.008350
3501.8339,0.008766
3503.6976,0.008647
3505.5612,0.007872
3507.4249,0.006910
3509.2886,0.006411
3511.1522,0.006558
3513.0159,0.006470
3514.8796,0.006325
3516.7432,0.006486
3518.6069,0.006680
3520.4706,0.006302
3522.3343,0.005764
3524.1979,0.005262
3526.0616,0.005031
3527.9253,0.005231
3529.7889,0.004892
3531.6526,0.004468
3533.5163,0.004243
3535.3799,0.003931
3537.2436,0.004034
3539.1073,0.004118
3540.9709,0.003750
3542.8346,0.003263
3544.6983,0.002701
3546.5620,0.002448
3548.4256,0.002332
3550.2893,0.002012
3552.1530,0.001429
3554.0166,0.000528
3555.8803,0.000439
3557.7440,0.001095
3559.6076,0.001053
3561.4713,0.000370
3563.3350,0.000126
3565.1986,0.000370
3567.0623,0.000351
3568.9260,0.000083
3570.7896,-0.000258
3572.6533,-0.000634
3574.5170,-0.000999
3576.3807,-0.001148
3578.2443,-0.001331
3580.1080,-0.001650
3581.9717,-0.001953
3583.8353,-0.001874
3585.6990,-0.001934
3587.5627,-0.002724
3589.4263,-0.003213
3591.2900,-0.002721
3593.1537,-0.002508
3595.0173,-0.002646
3596.8810,-0.002719
3598.7447,-0.003403
3600.6084,-0.004251
3602.4720,-0.004311
3604.3357,-0.004030
3606.1994,-0.004171
3608.0630,-0.004679
3609.9267,-0.004995
3611.7904,-0.005162
3613.6540,-0.004926
3615.5177,-0.004356
3617.3814,-0.004598
3619.2450,-0.005405
3621.1087,-0.005244
3622.9724,-0.005209
3624.8360,-0.005792
3626.6997,-0.006070
3628.5634,-0.006304
3630.4271,-0.006542
3632.2907,-0.006399
3634.1544,-0.006497
3636.0181,-0.006519
3637.8817,-0.006314
3639.7454,-0.006672
3641.6091,-0.007282
3643.4727,-0.007438
3645.3364,-0.007425
3647.2001,-0.008008
3649.0637,-0.008581
3650.9274,-0.007934
3652.7911,-0.007150
3654.6547,-0.007425
3656.5184,-0.008153
3658.3821,-0.008168
3660.2458,-0.008017
3662.1094,-0.008161
3663.9731,-0.008182
3665.8368,-0.008431
3667.7004,-0.008602
3669.5641,-0.008383
3671.4278,-0.008343
3673.2914,-0.008795
3675.1551,-0.009669
3677.0188,-0.009629
3678.8824,-0.008698
3680.7461,-0.008603
3682.6098,-0.008993
3684.4735,-0.008991
3686.3371,-0.008952
3688.2008,-0.009479
3690.0645,-0.009694
3691.9281,-0.009357
3693.7918,-0.009118
3695.6555,-0.009076
3697.5191,-0.009096
3699.3828,-0.009091
3701.2465,-0.009275
3703.1101,-0.009249
3704.9738,-0.009124
3706.8375,-0.009297
3708.7011,-0.009433
3710.5648,-0.009275
3712.4285,-0.009049
3714.2922,-0.008876
3716.1558,-0.009138
3718.0195,-0.009723
3719.8832,-0.009828
3721.7468,-0.009681
3723.6105,-0.009561
3725.4742,-0.009458
3727.3378,-0.008976
3729.2015,-0.008440
3731.0652,-0.009134
3732.9288,-0.009905
3734.7925,-0.009939
3736.6562,-0.009576
3738.5199,-0.008992
3740.3835,-0.009018
3742.2472,-0.009221
3744.1109,-0.009893
3745.9745,-0.009898
3747.8382,-0.009064
3749.7019,-0.009615
3751.5655,-0.009965
3753.4292,-0.009699
3755.2929,-0.009669
3757.1565,-0.009599
3759.0202,-0.009336
3760.8839,-0.008812
3762.7475,-0.008710
3764.6112,-0.009293
3766.4749,-0.009434
3768.3386,-0.009073
3770.2022,-0.009147
3772.0659,-0.009178
3773.9296,-0.009170
3775.7932,-0.009048
3777.6569,-0.009010
3779.5206,-0.009171
3781.3842,-0.009180
3783.2479,-0.009366
3785.1116,-0.009535
3786.9752,-0.009186
3788.8389,-0.008797
3790.7026,-0.009024
3792.5662,-0.009210
3794.4299,-0.008939
3796.2936,-0.009144
3798.1573,-0.009303
3800.0209,-0.009197
3801.8846,-0.009353
3803.7483,-0.009111
3805.6119,-0.009190
3807.4756,-0.009594
3809.3393,-0.009289
3811.2029,-0.009037
3813.0666,-0.009282
3814.9303,-0.009655
3816.7939,-0.009648
3818.6576,-0.009212
3820.5213,-0.009574
3822.3850,-0.009496
3824.2486,-0.008731
3826.1123,-0.009309
3827.9760,-0.009707
3829.8396,-0.009323
3831.7033,-0.009258
3833.5670,-0.009165
3835.4306,-0.009069
3837.2943,-0.009316
3839.1580,-0.009492
3841.0216,-0.009130
3842.8853,-0.008918
3844.7490,-0.009327
3846.6126,-0.009391
3848.4763,-0.009326
3850.3400,-0.009690
3852.2037,-0.010074
3854.0673,-0.009646
3855.9310,-0.008557
3857.7947,-0.008532
3859.6583,-0.009275
3861.5220,-0.009870
3863.3857,-0.010030
3865.2493,-0.009612
3867.1130,-0.009253
3868.9767,-0.009313
3870.8403,-0.009244
3872.7040,-0.008885
3874.5677,-0.009132
3876.4314,-0.009175
3878.2950,-0.009169
3880.1587,-0.009669
3882.0224,-0.009546
3883.8860,-0.008825
3885.7497,-0.009128
3887.6134,-0.009273
3889.4770,-0.008899
3891.3407,-0.009087
3893.2044,-0.009016
3895.0680,-0.008977
3896.9317,-0.009342
3898.7954,-0.009523
3900.6590,-0.009382
3902.5227,-0.009026
3904.3864,-0.008848
3906.2501,-0.008657
3908.1137,-0.008793
3909.9774,-0.009221
3911.8411,-0.009184
3913.7047,-0.009039
3915.5684,-0.009064
3917.4321,-0.009201
3919.2957,-0.008917
3921.1594,-0.008384
3923.0231,-0.008405
3924.8867,-0.008694
3926.7504,-0.008696
3928.6141,-0.008593
3930.4777,-0.008986
3932.3414,-0.009302
3934.2051,-0.009121
3936.0688,-0.008941
3937.9324,-0.009083
3939.7961,-0.008917
3941.6598,-0.008829
3943.5234,-0.008750
3945.3871,-0.008390
3947.2508,-0.008567
3949.1144,-0.008936
3950.9781,-0.008825
3952.8418,-0.008488
3954.7054,-0.008301
3956.5691,-0.008251
3958.4328,-0.008449
3960.2965,-0.008894
3962.1601,-0.009118
3964.0238,-0.009055
3965.8875,-0.008758
3967.7511,-0.008723
3969.6148,-0.008662
3971.4785,-0.008514
3973.3421,-0.008592
3975.2058,-0.008780
3977.0695,-0.008877
3978.9331,-0.008909
3980.7968,-0.008911
3982.6605,-0.008794
3984.5241,-0.008492
3986.3878,-0.008496
3988.2515,-0.008622
3990.1152,-0.008354
3991.9788,-0.008162
3993.8425,-0.008506
3995.7062,-0.008560
3997.5698,-0.008580
3999.4335,-0.008551
