Wavenumber,Intensity
650.4205,0.092916
652.2841,0.090597
654.1478,0.087091
656.0115,0.083585
657.8751,0.082477
659.7388,0.084392
661.6025,0.085922
663.4661,0.083466
665.3298,0.078781
667.1935,0.079732
669.0571,0.084322
670.9208,0.080473
672.7845,0.080352
674.6481,0.081440
676.5118,0.080426
678.3755,0.079084
680.2392,0.077466
682.1028,0.076718
683.9665,0.076172
685.8302,0.074924
687.6938,0.073533
689.5575,0.072417
691.4212,0.070986
693.2848,0.070964
695.1485,0.072558
697.0122,0.071958
698.8758,0.070847
700.7395,0.070683
702.6032,0.069970
704.4669,0.068390
706.3305,0.067434
708.1942,0.066726
710.0579,0.065115
711.9215,0.063660
713.7852,0.062871
715.6489,0.063070
717.5125,0.062613
719.3762,0.061188
721.2399,0.060228
723.1035,0.058948
724.9672,0.057923
726.8309,0.057351
728.6945,0.057083
730.5582,0.057102
732.4219,0.057116
734.2856,0.056547
736.1492,0.055263
738.0129,0.054948
739.8766,0.054858
741.7402,0.054217
743.6039,0.054167
745.4676,0.054162
747.3312,0.053559
749.1949,0.052309
751.0586,0.051223
752.9222,0.050762
754.7859,0.050431
756.6496,0.050190
758.5132,0.050055
760.3769,0.049625
762.2406,0.048997
764.1043,0.048665
765.9679,0.048673
767.8316,0.048921
769.6953,0.048159
771.5589,0.047230
773.4226,0.047074
775.2863,0.046592
777.1499,0.045942
779.0136,0.045821
780.8773,0.045827
782.7409,0.044996
784.6046,0.044308
786.4683,0.044419
788.3320,0.044029
790.1956,0.043244
792.0593,0.042724
793.9230,0.042391
795.7866,0.042284
797.6503,0.042345
799.5140,0.042093
801.3776,0.041587
803.2413,0.041420
805.1050,0.041587
806.9686,0.041215
808.8323,0.040737
810.6960,0.040801
812.5596,0.040719
814.4233,0.040338
816.2870,0.039967
818.1507,0.039399
820.0143,0.039003
821.8780,0.038829
823.7417,0.038489
825.6053,0.037996
827.4690,0.037728
829.3327,0.037522
831.1963,0.037091
833.0600,0.036979
834.9237,0.037024
836.7873,0.036468
838.6510,0.035881
840.5147,0.035407
842.3784,0.034830
844.2420,0.034688
846.1057,0.034682
847.9694,0.034466
849.8330,0.034442
851.6967,0.034570
853.5604,0.034452
855.4240,0.034229
857.2877,0.034212
859.1514,0.034537
861.0150,0.034805
862.8787,0.034906
864.7424,0.035197
866.6060,0.035512
868.4697,0.035951
870.3334,0.036457
872.1971,0.036742
874.0607,0.036810
875.9244,0.036633
877.7881,0.036256
879.6517,0.035893
881.5154,0.035665
883.3791,0.035693
885.2427,0.035779
887.1064,0.035597
888.9701,0.035351
890.8337,0.035574
892.6974,0.035868
894.5611,0.035929
896.4247,0.036046
898.2884,0.036119
900.1521,0.036013
902.0158,0.036008
903.8794,0.035927
905.7431,0.035834
907.6068,0.036084
909.4704,0.036422
911.3341,0.036687
913.1978,0.037011
915.0614,0.037407
916.9251,0.037872
918.7888,0.038018
920.6524,0.038103
922.5161,0.038498
924.3798,0.038814
926.2435,0.038763
928.1071,0.038664
929.9708,0.038933
931.8345,0.039312
933.6981,0.039462
935.5618,0.039650
937.4255,0.039899
939.2891,0.040185
941.1528,0.040593
943.0165,0.041179
944.8801,0.041689
946.7438,0.042094
948.6075,0.042501
950.4711,0.042873
952.3348,0.043454
954.1985,0.044241
956.0622,0.045143
957.9258,0.046153
959.7895,0.047131
961.6532,0.048178
963.5168,0.049153
965.3805,0.049868
967.2442,0.050330
969.1078,0.050470
970.9715,0.050427
972.8352,0.050527
974.6988,0.050776
976.5625,0.051060
978.4262,0.051437
980.2899,0.052036
982.1535,0.052765
984.0172,0.053444
985.8809,0.054150
987.7445,0.054927
989.6082,0.055836
991.4719,0.056730
993.3355,0.057543
995.1992,0.058451
997.0629,0.059362
998.9265,0.060215
1000.7902,0.061145
1002.6539,0.062090
1004.5175,0.063053
1006.3812,0.064301
1008.2449,0.065697
1010.1086,0.067019
1011.9722,0.068368
1013.8359,0.069633
1015.6996,0.070735
1017.5632,0.071791
1019.4269,0.072806
1021.2906,0.073492
1023.1542,0.073926
1025.0179,0.074355
1026.8816,0.074679
1028.7452,0.074817
1030.6089,0.074861
1032.4726,0.074749
1034.3362,0.074515
1036.1999,0.074339
1038.0636,0.074217
1039.9273,0.074036
1041.7909,0.073889
1043.6546,0.073669
1045.5183,0.073428
1047.3819,0.073315
1049.2456,0.073233
1051.1093,0.073121
1052.9729,0.072801
1054.8366,0.072613
1056.7003,0.072456
1058.5639,0.072125
1060.4276,0.071800
1062.2913,0.071548
1064.1550,0.071358
1066.0186,0.071209
1067.8823,0.070934
1069.7460,0.070527
1071.6096,0.070015
1073.4733,0.069404
1075.3370,0.068418
1077.2006,0.067167
1079.0643,0.065868
1080.9280,0.064460
1082.7916,0.063033
1084.6553,0.061734
1086.5190,0.060472
1088.3826,0.059205
1090.2463,0.058090
1092.1100,0.057203
1093.9737,0.056370
1095.8373,0.055667
1097.7010,0.055028
1099.5647,0.054484
1101.4283,0.054137
1103.2920,0.053768
1105.1557,0.053393
1107.0193,0.053098
1108.8830,0.052732
1110.7467,0.052351
1112.6103,0.052027
1114.4740,0.051658
1116.3377,0.051228
1118.2014,0.050670
1120.0650,0.050126
1121.9287,0.049796
1123.7924,0.049439
1125.6560,0.048910
1127.5197,0.048366
1129.3834,0.047823
1131.2470,0.047216
1133.1107,0.046606
1134.9744,0.046073
1136.8380,0.045648
1138.7017,0.045255
1140.5654,0.044984
1142.4290,0.044952
1144.2927,0.045086
1146.1564,0.045281
1148.0201,0.045516
1149.8837,0.045725
1151.7474,0.045848
1153.6111,0.046045
1155.4747,0.046319
1157.3384,0.046388
1159.2021,0.046211
1161.0657,0.046015
1162.9294,0.045828
1164.7931,0.045439
1166.6567,0.044885
1168.5204,0.044330
1170.3841,0.043621
1172.2477,0.042712
1174.1114,0.041718
1175.9751,0.040847
1177.8388,0.040209
1179.7024,0.039807
1181.5661,0.039712
1183.4298,0.039720
1185.2934,0.039882
1187.1571,0.040314
1189.0208,0.040788
1190.8844,0.041289
1192.7481,0.041951
1194.6118,0.042675
1196.4754,0.043414
1198.3391,0.044195
1200.2028,0.045055
1202.0665,0.045853
1203.9301,0.046419
1205.7938,0.046962
1207.6575,0.047464
1209.5211,0.047870
1211.3848,0.048300
1213.2485,0.048671
1215.1121,0.049105
1216.9758,0.049788
1218.8395,0.050516
1220.7031,0.051181
1222.5668,0.051888
1224.4305,0.052639
1226.2941,0.053284
1228.1578,0.053788
1230.0215,0.054253
1231.8852,0.054596
1233.7488,0.054806
1235.6125,0.054919
1237.4762,0.054882
1239.3398,0.054737
1241.2035,0.054471
1243.0672,0.054012
1244.9308,0.053484
1246.7945,0.052894
1248.6582,0.052318
1250.5218,0.051803
1252.3855,0.051249
1254.2492,0.050658
1256.1129,0.050122
1257.9765,0.049802
1259.8402,0.049618
1261.7039,0.049365
1263.5675,0.049096
1265.4312,0.048895
1267.2949,0.048772
1269.1585,0.048677
1271.0222,0.048550
1272.8859,0.048394
1274.7495,0.048341
1276.6132,0.048336
1278.4769,0.048272
1280.3405,0.048209
1282.2042,0.048217
1284.0679,0.048279
1285.9316,0.048386
1287.7952,0.048500
1289.6589,0.048558
1291.5226,0.048672
1293.3862,0.048845
1295.2499,0.049069
1297.1136,0.049297
1298.9772,0.049510
1300.8409,0.049900
1302.7046,0.050204
1304.5682,0.050445
1306.4319,0.050592
1308.2956,0.050693
1310.1592,0.050751
1312.0229,0.050884
1313.8866,0.050846
1315.7503,0.050430
1317.6139,0.050154
1319.4776,0.050001
1321.3413,0.049550
1323.2049,0.049095
1325.0686,0.048633
1326.9323,0.048217
1328.7959,0.048099
1330.6596,0.048167
1332.5233,0.048063
1334.3869,0.047719
1336.2506,0.047563
1338.1143,0.048201
1339.9780,0.048937
1341.8416,0.048524
1343.7053,0.048026
1345.5690,0.047943
1347.4326,0.047884
1349.2963,0.047978
1351.1600,0.047847
1353.0236,0.047849
1354.8873,0.048329
1356.7510,0.048639
1358.6146,0.048597
1360.4783,0.049157
1362.3420,0.050983
1364.2056,0.052287
1366.0693,0.052488
1367.9330,0.053244
1369.7967,0.053799
1371.6603,0.054037
1373.5240,0.055396
1375.3877,0.056764
1377.2513,0.056929
1379.1150,0.057315
1380.9787,0.057633
1382.8423,0.057678
1384.7060,0.057739
1386.5697,0.058691
1388.4333,0.059315
1390.2970,0.058182
1392.1607,0.057449
1394.0244,0.058254
1395.8880,0.058852
1397.7517,0.058528
1399.6154,0.058707
1401.4790,0.057435
1403.3427,0.056543
1405.2064,0.056815
1407.0700,0.056050
1408.9337,0.055177
1410.7974,0.054783
1412.6610,0.054104
1414.5247,0.053047
1416.3884,0.052547
1418.2520,0.054225
1420.1157,0.055527
1421.9794,0.054092
1423.8431,0.053998
1425.7067,0.054094
1427.5704,0.053862
1429.4341,0.055170
1431.2977,0.055953
1433.1614,0.055559
1435.0251,0.056863
1436.8887,0.060740
1438.7524,0.060806
1440.6161,0.059338
1442.4797,0.059192
1444.3434,0.058969
1446.2071,0.059149
1448.0707,0.059725
1449.9344,0.058791
1451.7981,0.056993
1453.6618,0.055335
1455.5254,0.055459
1457.3891,0.058642
1459.2528,0.056591
1461.1164,0.052998
1462.9801,0.051559
1464.8438,0.052470
1466.7074,0.051302
1468.5711,0.048692
1470.4348,0.047539
1472.2984,0.049361
1474.1621,0.049849
1476.0258,0.048774
1477.8895,0.047942
1479.7531,0.047607
1481.6168,0.048358
1483.4805,0.048607
1485.3441,0.049061
1487.2078,0.051311
1489.0715,0.055576
1490.9351,0.058766
1492.7988,0.058067
1494.6625,0.058837
1496.5261,0.063782
1498.3898,0.067424
1500.2535,0.067866
1502.1171,0.066781
1503.9808,0.066330
1505.8445,0.072626
1507.7082,0.082174
1509.5718,0.080782
1511.4355,0.079671
1513.2992,0.079735
1515.1628,0.079917
1517.0265,0.081243
1518.8902,0.080915
1520.7538,0.082369
1522.6175,0.084800
1524.4812,0.083653
1526.3448,0.084331
1528.2085,0.084242
1530.0722,0.082704
1531.9359,0.082329
1533.7995,0.084080
1535.6632,0.081860
1537.5269,0.078931
1539.3905,0.081046
1541.2542,0.083478
1543.1179,0.081236
1544.9815,0.078988
1546.8452,0.075924
1548.7089,0.073117
1550.5725,0.071119
1552.4362,0.068144
1554.2999,0.065140
1556.1635,0.062455
1558.0272,0.063508
1559.8909,0.065737
1561.7546,0.060614
1563.6182,0.057221
1565.4819,0.055595
1567.3456,0.054229
1569.2092,0.054266
1571.0729,0.053083
1572.9366,0.050656
1574.8002,0.050782
1576.6639,0.052770
1578.5276,0.051680
1580.3912,0.050334
1582.2549,0.050154
1584.1186,0.050315
1585.9822,0.050832
1587.8459,0.051414
1589.7096,0.052301
1591.5733,0.053450
1593.4369,0.054694
1595.3006,0.056095
1597.1643,0.057346
1599.0279,0.058701
1600.8916,0.060565
1602.7553,0.062602
1604.6189,0.064687
1606.4826,0.066937
1608.3463,0.069607
1610.2099,0.071732
1612.0736,0.072915
1613.9373,0.073848
1615.8010,0.077590
1617.6646,0.082230
1619.5283,0.081626
1621.3920,0.081377
1623.2556,0.084365
1625.1193,0.085563
1626.9830,0.085935
1628.8466,0.086652
1630.7103,0.085367
1632.5740,0.083479
1634.4376,0.084308
1636.3013,0.087248
1638.1650,0.085219
1640.0286,0.082209
1641.8923,0.079918
1643.7560,0.077905
1645.6197,0.077701
1647.4833,0.077572
1649.3470,0.074154
1651.2107,0.071174
1653.0743,0.072916
1654.9380,0.071168
1656.8017,0.066623
1658.6653,0.063033
1660.5290,0.060215
1662.3927,0.057878
1664.2563,0.055190
1666.1200,0.052153
1667.9837,0.049949
1669.8474,0.048290
1671.7110,0.045952
1673.5747,0.043483
1675.4384,0.041875
1677.3020,0.039347
1679.1657,0.036265
1681.0294,0.033665
1682.8930,0.032064
1684.7567,0.031143
1686.6204,0.028609
1688.4840,0.025977
1690.3477,0.023689
1692.2114,0.021238
1694.0750,0.018977
1695.9387,0.017180
1697.8024,0.014989
1699.6661,0.013378
1701.5297,0.012400
1703.3934,0.010777
1705.2571,0.009627
1707.1207,0.008700
1708.9844,0.007875
1710.8481,0.007191
1712.7117,0.006506
1714.5754,0.006178
1716.4391,0.006114
1718.3027,0.005843
1720.1664,0.005394
1722.0301,0.004883
1723.8937,0.004653
1725.7574,0.004456
1727.6211,0.004247
1729.4848,0.004084
1731.3484,0.004036
1733.2121,0.004166
1735.0758,0.004740
1736.9394,0.004396
1738.8031,0.004061
1740.6668,0.004027
1742.5304,0.003878
1744.3941,0.003731
1746.2578,0.003486
1748.1214,0.003042
1749.9851,0.002753
1751.8488,0.002414
1753.7125,0.001958
1755.5761,0.001690
1757.4398,0.001583
1759.3035,0.001142
1761.1671,0.000878
1763.0308,0.000695
1764.8945,0.000379
1766.7581,0.000241
1768.6218,0.000331
1770.4855,0.000155
1772.3491,0.000164
1774.2128,0.000230
1776.0765,0.000007
1777.9401,-0.000330
1779.8038,-0.000307
1781.6675,-0.000150
1783.5312,-0.000106
1785.3948,0.000073
1787.2585,0.000033
1789.1222,-0.000069
1790.9858,0.000114
1792.8495,0.000337
1794.7132,0.000205
1796.5768,0.000088
1798.4405,0.000029
1800.3042,-0.000134
1802.1678,-0.000190
1804.0315,-0.000265
1805.8952,-0.000362
1807.7589,-0.000440
1809.6225,-0.000332
1811.4862,-0.000381
1813.3499,-0.000648
1815.2135,-0.001113
1817.0772,-0.001212
1818.9409,-0.000921
1820.8045,-0.000535
1822.6682,-0.000511
1824.5319,-0.000634
1826.3955,-0.000625
1828.2592,-0.000716
1830.1229,-0.000838
1831.9865,-0.000721
1833.8502,-0.000650
1835.7139,-0.000834
1837.5776,-0.000929
1839.4412,-0.000706
1841.3049,-0.000844
1843.1686,-0.001053
1845.0322,-0.000938
1846.8959,-0.000912
1848.7596,-0.000996
1850.6232,-0.001218
1852.4869,-0.001297
1854.3506,-0.001006
1856.2142,-0.000810
1858.0779,-0.000817
1859.9416,-0.000795
1861.8052,-0.001038
1863.6689,-0.001174
1865.5326,-0.000993
1867.3963,-0.000834
1869.2599,-0.000695
1871.1236,-0.000776
1872.9873,-0.001100
1874.8509,-0.001028
1876.7146,-0.000531
1878.5783,-0.000692
1880.4419,-0.001308
1882.3056,-0.001350
1884.1693,-0.000926
1886.0329,-0.000871
1887.8966,-0.000827
1889.7603,-0.000686
1891.6240,-0.000696
1893.4876,-0.000572
1895.3513,-0.000414
1897.2150,-0.000607
1899.0786,-0.000743
1900.9423,-0.000505
1902.8060,-0.000434
1904.6696,-0.000568
1906.5333,-0.000499
1908.3970,-0.000569
1910.2606,-0.000466
1912.1243,-0.000581
1913.9880,-0.000872
1915.8516,-0.000769
1917.7153,-0.000659
1919.5790,-0.000900
1921.4427,-0.001545
1923.3063,-0.001397
1925.1700,-0.000656
1927.0337,-0.000337
1928.8973,0.000050
1930.7610,-0.000097
1932.6247,-0.000224
1934.4883,-0.000268
1936.3520,-0.000477
1938.2157,-0.000415
1940.0793,-0.000339
1941.9430,-0.000214
1943.8067,-0.000411
1945.6704,-0.000740
1947.5340,-0.000391
1949.3977,-0.000321
1951.2614,-0.000090
1953.1250,0.000492
1954.9887,0.000409
1956.8524,0.000271
1958.7160,0.001260
1960.5797,0.002235
1962.4434,0.001791
1964.3070,0.001307
1966.1707,0.000672
1968.0344,-0.000077
1969.8980,0.000293
1971.7617,0.000565
1973.6254,0.000542
1975.4891,0.001515
1977.3527,0.003187
1979.2164,0.003408
1981.0801,0.003363
1982.9437,0.002909
1984.8074,0.001340
1986.6711,0.000184
1988.5347,0.001145
1990.3984,0.002409
1992.2621,0.002120
1994.1257,0.001730
1995.9894,0.002502
1997.8531,0.001713
1999.7167,0.000118
2001.5804,0.000751
2003.4441,0.001171
2005.3078,0.000913
2007.1714,0.001417
2009.0351,0.001249
2010.8988,0.001076
2012.7624,0.001284
2014.6261,0.002118
2016.4898,0.002834
2018.3534,0.002870
2020.2171,0.002079
2022.0808,0.001616
2023.9444,0.002762
2025.8081,0.003815
2027.6718,0.003200
2029.5355,0.003187
2031.3991,0.003181
2033.2628,0.001893
2035.1265,0.001162
2036.9901,0.001706
2038.8538,0.002294
2040.7175,0.003087
2042.5811,0.003542
2044.4448,0.003181
2046.3085,0.003030
2048.1721,0.003446
2050.0358,0.004134
2051.8995,0.004207
2053.7631,0.003779
2055.6268,0.003568
2057.4905,0.003517
2059.3542,0.002907
2061.2178,0.002152
2063.0815,0.002859
2064.9452,0.003504
2066.8088,0.002914
2068.6725,0.002519
2070.5362,0.002680
2072.3998,0.002649
2074.2635,0.002212
2076.1272,0.002196
2077.9908,0.002318
2079.8545,0.002244
2081.7182,0.002409
2083.5819,0.002343
2085.4455,0.002723
2087.3092,0.003010
2089.1729,0.002354
2091.0365,0.001947
2092.9002,0.002357
2094.7639,0.003000
2096.6275,0.002934
2098.4912,0.002196
2100.3549,0.001881
2102.2185,0.002448
2104.0822,0.002677
2105.9459,0.002528
2107.8095,0.002954
2109.6732,0.003000
2111.5369,0.002669
2113.4006,0.002756
2115.2642,0.002746
2117.1279,0.002368
2118.9916,0.002190
2120.8552,0.002022
2122.7189,0.001820
2124.5826,0.001839
2126.4462,0.001854
2128.3099,0.001944
2130.1736,0.001416
2132.0372,0.000722
2133.9009,0.000995
2135.7646,0.001416
2137.6282,0.001495
2139.4919,0.001356
2141.3556,0.001939
2143.2193,0.003009
2145.0829,0.003014
2146.9466,0.002973
2148.8103,0.003259
2150.6739,0.002831
2152.5376,0.002265
2154.4013,0.002185
2156.2649,0.001813
2158.1286,0.002968
2159.9923,0.005738
2161.8559,0.005721
2163.7196,0.004260
2165.5833,0.004116
2167.4470,0.004141
2169.3106,0.003876
2171.1743,0.004193
2173.0380,0.004189
2174.9016,0.003300
2176.7653,0.003535
2178.6290,0.004131
2180.4926,0.003625
2182.3563,0.003927
2184.2200,0.004731
2186.0836,0.004714
2187.9473,0.004851
2189.8110,0.005521
2191.6746,0.006024
2193.5383,0.005209
2195.4020,0.003793
2197.2657,0.003786
2199.1293,0.004957
2200.9930,0.005161
2202.8567,0.004180
2204.7203,0.004489
2206.5840,0.005372
2208.4477,0.004258
2210.3113,0.002961
2212.1750,0.003350
2214.0387,0.003990
2215.9023,0.003695
2217.7660,0.002914
2219.6297,0.003580
2221.4934,0.004949
2223.3570,0.004603
2225.2207,0.003746
2227.0844,0.003956
2228.9480,0.004452
2230.8117,0.004331
2232.6754,0.003915
2234.5390,0.004128
2236.4027,0.004204
2238.2664,0.003741
2240.1300,0.003536
2241.9937,0.003669
2243.8574,0.004317
2245.7210,0.004405
2247.5847,0.003476
2249.4484,0.002923
2251.3121,0.003210
2253.1757,0.003767
2255.0394,0.003959
2256.9031,0.003614
2258.7667,0.003630
2260.6304,0.004099
2262.4941,0.004148
2264.3577,0.003917
2266.2214,0.003627
2268.0851,0.003749
2269.9487,0.004308
2271.8124,0.004417
2273.6761,0.004382
2275.5397,0.004498
2277.4034,0.004429
2279.2671,0.003976
2281.1308,0.003579
2282.9944,0.003858
2284.8581,0.004428
2286.7218,0.004758
2288.5854,0.004571
2290.4491,0.004320
2292.3128,0.004128
2294.1764,0.003809
2296.0401,0.003929
2297.9038,0.004126
2299.7674,0.003862
2301.6311,0.003426
2303.4948,0.003170
2305.3585,0.003245
2307.2221,0.003567
2309.0858,0.003702
2310.9495,0.003609
2312.8131,0.003583
2314.6768,0.003681
2316.5405,0.003712
2318.4041,0.003897
2320.2678,0.004648
2322.1315,0.005208
2323.9951,0.005044
2325.8588,0.004363
2327.7225,0.003713
2329.5861,0.003410
2331.4498,0.003306
2333.3135,0.002945
2335.1772,0.002770
2337.0408,0.003237
2338.9045,0.003712
2340.7682,0.003973
2342.6318,0.004398
2344.4955,0.004469
2346.3592,0.003637
2348.2228,0.002683
2350.0865,0.002060
2351.9502,0.002183
2353.8138,0.002992
2355.6775,0.003723
2357.5412,0.004239
2359.4049,0.003919
2361.2685,0.003610
2363.1322,0.004549
2364.9959,0.005532
2366.8595,0.005431
2368.7232,0.004982
2370.5869,0.004814
2372.4505,0.004646
2374.3142,0.004410
2376.1779,0.004207
2378.0415,0.004027
2379.9052,0.003674
2381.7689,0.003416
2383.6325,0.003344
2385.4962,0.003344
2387.3599,0.003381
2389.2236,0.003382
2391.0872,0.003352
2392.9509,0.003520
2394.8146,0.003779
2396.6782,0.003732
2398.5419,0.003818
2400.4056,0.003911
2402.2692,0.003608
2404.1329,0.003185
2405.9966,0.003315
2407.8602,0.003902
2409.7239,0.003975
2411.5876,0.003819
2413.4512,0.003885
2415.3149,0.003952
2417.1786,0.004165
2419.0423,0.004198
2420.9059,0.004083
2422.7696,0.004241
2424.6333,0.004570
2426.4969,0.004735
2428.3606,0.004498
2430.2243,0.004340
2432.0879,0.004688
2433.9516,0.004898
2435.8153,0.004939
2437.6789,0.005077
2439.5426,0.005019
2441.4063,0.005135
2443.2700,0.005100
2445.1336,0.005142
2446.9973,0.005253
2448.8610,0.005053
2450.7246,0.005154
2452.5883,0.005371
2454.4520,0.005171
2456.3156,0.005071
2458.1793,0.005419
2460.0430,0.005492
2461.9066,0.005389
2463.7703,0.005459
2465.6340,0.005402
2467.4976,0.005429
2469.3613,0.005587
2471.2250,0.005758
2473.0887,0.005507
2474.9523,0.005192
2476.8160,0.005376
2478.6797,0.005668
2480.5433,0.006134
2482.4070,0.006459
2484.2707,0.006214
2486.1343,0.005913
2487.9980,0.006050
2489.8617,0.006157
2491.7253,0.005972
2493.5890,0.006039
2495.4527,0.006348
2497.3164,0.006520
2499.1800,0.006578
2501.0437,0.006246
2502.9074,0.006056
2504.7710,0.006474
2506.6347,0.006672
2508.4984,0.006349
2510.3620,0.006132
2512.2257,0.006268
2514.0894,0.006769
2515.9530,0.006726
2517.8167,0.006712
2519.6804,0.007137
2521.5440,0.007290
2523.4077,0.006939
2525.2714,0.006804
2527.1351,0.006902
2528.9987,0.006559
2530.8624,0.006480
2532.7261,0.006875
2534.5897,0.007205
2536.4534,0.007270
2538.3171,0.007188
2540.1807,0.007160
2542.0444,0.007141
2543.9081,0.007173
2545.7717,0.007563
2547.6354,0.007799
2549.4991,0.007598
2551.3627,0.007706
2553.2264,0.007667
2555.0901,0.007210
2556.9538,0.007391
2558.8174,0.007536
2560.6811,0.007480
2562.5448,0.007718
2564.4084,0.008110
2566.2721,0.008050
2568.1358,0.008172
2569.9994,0.008442
2571.8631,0.008470
2573.7268,0.008129
2575.5904,0.007931
2577.4541,0.008105
2579.3178,0.008448
2581.1815,0.008434
2583.0451,0.008120
2584.9088,0.008356
2586.7725,0.008743
2588.6361,0.008825
2590.4998,0.008615
2592.3635,0.008562
2594.2271,0.008644
2596.0908,0.008589
2597.9545,0.008848
2599.8181,0.009135
2601.6818,0.009190
2603.5455,0.009226
2605.4091,0.009263
2607.2728,0.009264
2609.1365,0.009300
2611.0002,0.009592
2612.8638,0.009842
2614.7275,0.009634
2616.5912,0.009636
2618.4548,0.009769
2620.3185,0.010000
2622.1822,0.010167
2624.0458,0.010282
2625.9095,0.010405
2627.7732,0.010355
2629.6368,0.010335
2631.5005,0.010314
2633.3642,0.010487
2635.2279,0.010734
2637.0915,0.010769
2638.9552,0.010804
2640.8189,0.010893
2642.6825,0.011003
2644.5462,0.011181
2646.4099,0.011013
2648.2735,0.010831
2650.1372,0.010869
2652.0009,0.010870
2653.8645,0.011010
2655.7282,0.011181
2657.5919,0.011105
2659.4555,0.011138
2661.3192,0.010991
2663.1829,0.010566
2665.0466,0.010651
2666.9102,0.010824
2668.7739,0.010788
2670.6376,0.010889
2672.5012,0.010843
2674.3649,0.010725
2676.2286,0.010942
2678.0922,0.011142
2679.9559,0.011217
2681.8196,0.011231
2683.6832,0.011286
2685.5469,0.011246
2687.4106,0.011260
2689.2742,0.011432
2691.1379,0.011496
2693.0016,0.011578
2694.8653,0.011700
2696.7289,0.011615
2698.5926,0.011619
2700.4563,0.011773
2702.3199,0.011912
2704.1836,0.011920
2706.0473,0.011974
2707.9109,0.012156
2709.7746,0.012083
2711.6383,0.012053
2713.5019,0.012378
2715.3656,0.012632
2717.2293,0.012638
2719.0930,0.012659
2720.9566,0.012733
2722.8203,0.012761
2724.6840,0.012827
2726.5476,0.012963
2728.4113,0.013180
2730.2750,0.013418
2732.1386,0.013355
2734.0023,0.013378
2735.8660,0.013560
2737.7296,0.013690
2739.5933,0.013752
2741.4570,0.013844
2743.3206,0.014025
2745.1843,0.014170
2747.0480,0.014096
2748.9117,0.013850
2750.7753,0.013955
2752.6390,0.014138
2754.5027,0.014282
2756.3663,0.014693
2758.2300,0.014909
2760.0937,0.014802
2761.9573,0.014858
2763.8210,0.014857
2765.6847,0.014890
2767.5483,0.015238
2769.4120,0.015659
2771.2757,0.015576
2773.1394,0.015503
2775.0030,0.015671
2776.8667,0.015827
2778.7304,0.015984
2780.5940,0.016109
2782.4577,0.016182
2784.3214,0.016289
2786.1850,0.016375
2788.0487,0.016531
2789.9124,0.016753
2791.7760,0.016852
2793.6397,0.016739
2795.5034,0.016762
2797.3670,0.016954
2799.2307,0.017103
2801.0944,0.017284
2802.9581,0.017557
2804.8217,0.017685
2806.6854,0.017741
2808.5491,0.017848
2810.4127,0.018167
2812.2764,0.018363
2814.1401,0.018349
2816.0037,0.018471
2817.8674,0.018529
2819.7311,0.018709
2821.5947,0.019088
2823.4584,0.018969
2825.3221,0.019027
2827.1857,0.019345
2829.0494,0.019449
2830.9131,0.019551
2832.7768,0.020082
2834.6404,0.020414
2836.5041,0.020549
2838.3678,0.020695
2840.2314,0.020929
2842.0951,0.021279
2843.9588,0.021713
2845.8224,0.022215
2847.6861,0.022727
2849.5498,0.023154
2851.4134,0.023505
2853.2771,0.023681
2855.1408,0.023612
2857.0045,0.023578
2858.8681,0.023892
2860.7318,0.024065
2862.5955,0.024051
2864.4591,0.024347
2866.3228,0.024769
2868.1865,0.025083
2870.0501,0.025397
2871.9138,0.025491
2873.7775,0.025266
2875.6411,0.025063
2877.5048,0.024875
2879.3685,0.024793
2881.2321,0.024662
2883.0958,0.024626
2884.9595,0.024938
2886.8232,0.025030
2888.6868,0.024819
2890.5505,0.024913
2892.4142,0.025383
2894.2778,0.025766
2896.1415,0.025816
2898.0052,0.025514
2899.8688,0.025586
2901.7325,0.025908
2903.5962,0.026205
2905.4598,0.026362
2907.3235,0.026779
2909.1872,0.027514
2911.0509,0.027846
2912.9145,0.028143
2914.7782,0.028701
2916.6419,0.028873
2918.5055,0.029082
2920.3692,0.029263
2922.2329,0.029306
2924.0965,0.029566
2925.9602,0.029872
2927.8239,0.030045
2929.6875,0.029584
2931.5512,0.028747
2933.4149,0.028655
2935.2785,0.028559
2937.1422,0.028204
2939.0059,0.027866
2940.8696,0.027705
2942.7332,0.027572
2944.5969,0.027295
2946.4606,0.027154
2948.3242,0.026956
2950.1879,0.026760
2952.0516,0.026884
2953.9152,0.027029
2955.7789,0.027194
2957.6426,0.027126
2959.5062,0.026800
2961.3699,0.026461
2963.2336,0.026126
2965.0972,0.025580
2966.9609,0.025334
2968.8246,0.025113
2970.6883,0.025010
2972.5519,0.024684
2974.4156,0.024280
2976.2793,0.023790
2978.1429,0.023385
2980.0066,0.022983
2981.8703,0.022559
2983.7339,0.022262
2985.5976,0.022206
2987.4613,0.021807
2989.3249,0.021354
2991.1886,0.021113
2993.0523,0.021015
2994.9160,0.020965
2996.7796,0.020974
2998.6433,0.020792
3000.5070,0.020813
3002.3706,0.020936
3004.2343,0.021116
3006.0980,0.021286
3007.9616,0.021350
3009.8253,0.021337
3011.6890,0.021902
3013.5526,0.022158
3015.4163,0.021719
3017.2800,0.021742
3019.1436,0.021992
3021.0073,0.022010
3022.8710,0.022353
3024.7347,0.022455
3026.5983,0.022391
3028.4620,0.022683
3030.3257,0.023028
3032.1893,0.023480
3034.0530,0.023910
3035.9167,0.023952
3037.7803,0.023969
3039.6440,0.023915
3041.5077,0.023911
3043.3713,0.024181
3045.2350,0.024410
3047.0987,0.024690
3048.9624,0.024912
3050.8260,0.024468
3052.6897,0.024414
3054.5534,0.024687
3056.4170,0.024668
3058.2807,0.024685
3060.1444,0.024800
3062.0080,0.024888
3063.8717,0.025052
3065.7354,0.025211
3067.5990,0.025196
3069.4627,0.024827
3071.3264,0.024726
3073.1900,0.024909
3075.0537,0.025015
3076.9174,0.024973
3078.7811,0.024829
3080.6447,0.024469
3082.5084,0.024372
3084.3721,0.024455
3086.2357,0.024379
3088.0994,0.024185
3089.9631,0.024164
3091.8267,0.023993
3093.6904,0.023897
3095.5541,0.024036
3097.4177,0.024168
3099.2814,0.023812
3101.1451,0.023630
3103.0087,0.023387
3104.8724,0.023316
3106.7361,0.023581
3108.5998,0.023791
3110.4634,0.023866
3112.3271,0.023950
3114.1908,0.023910
3116.0544,0.023930
3117.9181,0.023894
3119.7818,0.023763
3121.6454,0.023684
3123.5091,0.023650
3125.3728,0.024073
3127.2364,0.024651
3129.1001,0.024651
3130.9638,0.024568
3132.8275,0.024639
3134.6911,0.024737
3136.5548,0.025056
3138.4185,0.025543
3140.2821,0.025444
3142.1458,0.025494
3144.0095,0.025477
3145.8731,0.025588
3147.7368,0.026003
3149.6005,0.026473
3151.4641,0.026871
3153.3278,0.026786
3155.1915,0.026663
3157.0551,0.026874
3158.9188,0.027112
3160.7825,0.027477
3162.6462,0.027618
3164.5098,0.027895
3166.3735,0.028120
3168.2372,0.028170
3170.1008,0.028517
3171.9645,0.029056
3173.8282,0.029326
3175.6918,0.029360
3177.5555,0.029224
3179.4192,0.029411
3181.2828,0.029879
3183.1465,0.030461
3185.0102,0.030219
3186.8739,0.030361
3188.7375,0.030779
3190.6012,0.030675
3192.4649,0.030705
3194.3285,0.031034
3196.1922,0.031352
3198.0559,0.031539
3199.9195,0.031514
3201.7832,0.031241
3203.6469,0.031423
3205.5105,0.031725
3207.3742,0.031532
3209.2379,0.031076
3211.1015,0.031354
3212.9652,0.032060
3214.8289,0.032197
3216.6926,0.032201
3218.5562,0.032173
3220.4199,0.032344
3222.2836,0.032798
3224.1472,0.032955
3226.0109,0.032807
3227.8746,0.032977
3229.7382,0.033105
3231.6019,0.033135
3233.4656,0.032978
3235.3292,0.033013
3237.1929,0.033354
3239.0566,0.033688
3240.9202,0.033841
3242.7839,0.034316
3244.6476,0.034608
3246.5113,0.034520
3248.3749,0.034392
3250.2386,0.034920
3252.1023,0.035720
3253.9659,0.035764
3255.8296,0.035274
3257.6933,0.036004
3259.5569,0.036736
3261.4206,0.036295
3263.2843,0.036064
3265.1479,0.036345
3267.0116,0.036057
3268.8753,0.036213
3270.7390,0.036344
3272.6026,0.036517
3274.4663,0.037353
3276.3300,0.037038
3278.1936,0.036008
3280.0573,0.035935
3281.9210,0.036500
3283.7846,0.036314
3285.6483,0.035428
3287.5120,0.035042
3289.3756,0.035202
3291.2393,0.035432
3293.1030,0.034817
3294.9666,0.034344
3296.8303,0.034054
3298.6940,0.034101
3300.5577,0.034431
3302.4213,0.033846
3304.2850,0.032692
3306.1487,0.032246
3308.0123,0.032163
3309.8760,0.032134
3311.7397,0.031529
3313.6033,0.031252
3315.4670,0.031251
3317.3307,0.030651
3319.1943,0.030054
3321.0580,0.029563
3322.9217,0.029163
3324.7854,0.028901
3326.6490,0.028727
3328.5127,0.029208
3330.3764,0.028552
3332.2400,0.027944
3334.1037,0.028012
3335.9674,0.027550
3337.8310,0.027212
3339.6947,0.027461
3341.5584,0.026797
3343.4220,0.025913
3345.2857,0.025833
3347.1494,0.026369
3349.0130,0.026600
3350.8767,0.026190
3352.7404,0.025766
3354.6041,0.025704
3356.4677,0.025068
3358.3314,0.024952
3360.1951,0.024903
3362.0587,0.024625
3363.9224,0.024489
3365.7861,0.024152
3367.6497,0.023260
3369.5134,0.022892
3371.3771,0.022947
3373.2407,0.022955
3375.1044,0.023015
3376.9681,0.022868
3378.8317,0.022299
3380.6954,0.022330
3382.5591,0.022522
3384.4228,0.022084
3386.2864,0.022189
3388.1501,0.022193
3390.0138,0.021484
3391.8774,0.021510
3393.7411,0.021812
3395.6048,0.021461
3397.4684,0.020927
3399.3321,0.020789
3401.1958,0.020546
3403.0594,0.020210
3404.9231,0.020258
3406.7868,0.020239
3408.6505,0.019661
3410.5141,0.019729
3412.3778,0.019843
3414.2415,0.019446
3416.1051,0.019440
3417.9688,0.019733
3419.8325,0.019569
3421.6961,0.018672
3423.5598,0.017938
3425.4235,0.018155
3427.2871,0.018107
3429.1508,0.017919
3431.0145,0.018214
3432.8781,0.018501
3434.7418,0.018128
3436.6055,0.017243
3438.4692,0.016845
3440.3328,0.016806
3442.1965,0.016300
3444.0602,0.016776
3445.9238,0.016882
3447.7875,0.016274
3449.6512,0.016254
3451.5148,0.016378
3453.3785,0.016239
3455.2422,0.015862
3457.1058,0.015390
3458.9695,0.014964
3460.8332,0.014688
3462.6969,0.014782
3464.5605,0.014710
3466.4242,0.014799
3468.2879,0.015457
3470.1515,0.015567
3472.0152,0.014525
3473.8789,0.013344
3475.7425,0.012885
3477.6062,0.013404
3479.4699,0.013664
3481.3335,0.013411
3483.1972,0.013350
3485.0609,0.013129
3486.9245,0.012971
3488.7882,0.012701
3490.6519,0.012918
3492.5156,0.012844
3494.3792,0.012161
3496.2429,0.011866
3498.1066,0.011600
3499.9702,0.011192
3501.8339,0.010719
3503.6976,0.010377
3505.5612,0.009995
3507.4249,0.010142
3509.2886,0.010781
3511.1522,0.010457
3513.0159,0.009962
3514.8796,0.010720
3516.7432,0.010539
3518.6069,0.009249
3520.4706,0.008331
3522.3343,0.007739
3524.1979,0.007923
3526.0616,0.008654
3527.9253,0.008864
3529.7889,0.008658
3531.6526,0.008213
3533.5163,0.007467
3535.3799,0.007308
3537.2436,0.007619
3539.1073,0.007642
3540.9709,0.006852
3542.8346,0.006183
3544.6983,0.006568
3546.5620,0.006885
3548.4256,0.006306
3550.2893,0.006138
3552.1530,0.006329
3554.0166,0.006017
3555.8803,0.005233
3557.7440,0.004868
3559.6076,0.004658
3561.4713,0.004404
3563.3350,0.004638
3565.1986,0.004645
3567.0623,0.004256
3568.9260,0.004137
3570.7896,0.004412
3572.6533,0.004320
3574.5170,0.004051
3576.3807,0.003765
3578.2443,0.003072
3580.1080,0.002905
3581.9717,0.003289
3583.8353,0.003350
3585.6990,0.003042
3587.5627,0.002677
3589.4263,0.002679
3591.2900,0.002336
3593.1537,0.001955
3595.0173,0.002157
3596.8810,0.001445
3598.7447,0.000859
3600.6084,0.001746
3602.4720,0.001976
3604.3357,0.000985
3606.1994,0.000343
3608.0630,0.000580
3609.9267,0.000922
3611.7904,0.000220
3613.6540,-0.000160
3615.5177,0.000130
3617.3814,-0.000140
3619.2450,-0.000173
3621.1087,0.000249
3622.9724,0.000187
3624.8360,0.000022
3626.6997,-0.000172
3628.5634,-0.000455
3630.4271,-0.000234
3632.2907,-0.000191
3634.1544,-0.000870
3636.0181,-0.001260
3637.8817,-0.001284
3639.7454,-0.001601
3641.6091,-0.001895
3643.4727,-0.001889
3645.3364,-0.001737
3647.2001,-0.001854
3649.0637,-0.002242
3650.9274,-0.002433
3652.7911,-0.002374
3654.6547,-0.002537
3656.5184,-0.002867
3658.3821,-0.002842
3660.2458,-0.002537
3662.1094,-0.002424
3663.9731,-0.002926
3665.8368,-0.003190
3667.7004,-0.003124
3669.5641,-0.003443
3671.4278,-0.003218
3673.2914,-0.002807
3675.1551,-0.003434
3677.0188,-0.003786
3678.8824,-0.003410
3680.7461,-0.003863
3682.6098,-0.004404
3684.4735,-0.004343
3686.3371,-0.004244
3688.2008,-0.004581
3690.0645,-0.005008
3691.9281,-0.004663
3693.7918,-0.004186
3695.6555,-0.004472
3697.5191,-0.004711
3699.3828,-0.004488
3701.2465,-0.004602
3703.1101,-0.004592
3704.9738,-0.004360
3706.8375,-0.004645
3708.7011,-0.004976
3710.5648,-0.004819
3712.4285,-0.004649
3714.2922,-0.004852
3716.1558,-0.005175
3718.0195,-0.005308
3719.8832,-0.005035
3721.7468,-0.004879
3723.6105,-0.005047
3725.4742,-0.005096
3727.3378,-0.005021
3729.2015,-0.004965
3731.0652,-0.005041
3732.9288,-0.005070
3734.7925,-0.005125
3736.6562,-0.005281
3738.5199,-0.005221
3740.3835,-0.004973
3742.2472,-0.004643
3744.1109,-0.004878
3745.9745,-0.005284
3747.8382,-0.004917
3749.7019,-0.004945
3751.5655,-0.005048
3753.4292,-0.004840
3755.2929,-0.005078
3757.1565,-0.005226
3759.0202,-0.004931
3760.8839,-0.004800
3762.7475,-0.004967
3764.6112,-0.004770
3766.4749,-0.004595
3768.3386,-0.004924
3770.2022,-0.004997
3772.0659,-0.004912
3773.9296,-0.005129
3775.7932,-0.005065
3777.6569,-0.005029
3779.5206,-0.005353
3781.3842,-0.005427
3783.2479,-0.005345
3785.1116,-0.005237
3786.9752,-0.005078
3788.8389,-0.005382
3790.7026,-0.005365
3792.5662,-0.005134
3794.4299,-0.005132
3796.2936,-0.005231
3798.1573,-0.005214
3800.0209,-0.005150
3801.8846,-0.005432
3803.7483,-0.005411
3805.6119,-0.005252
3807.4756,-0.005391
3809.3393,-0.005276
3811.2029,-0.005096
3813.0666,-0.005419
3814.9303,-0.005655
3816.7939,-0.005481
3818.6576,-0.005188
3820.5213,-0.005193
3822.3850,-0.005099
3824.2486,-0.004811
3826.1123,-0.005166
3827.9760,-0.005394
3829.8396,-0.005300
3831.7033,-0.005128
3833.5670,-0.005089
3835.4306,-0.005454
3837.2943,-0.005623
3839.1580,-0.005194
3841.0216,-0.004868
3842.8853,-0.004966
3844.7490,-0.005071
3846.6126,-0.005209
3848.4763,-0.005422
3850.3400,-0.005607
3852.2037,-0.005756
3854.0673,-0.005614
3855.9310,-0.004950
3857.7947,-0.004813
3859.6583,-0.005252
3861.5220,-0.005421
3863.3857,-0.005255
3865.2493,-0.005103
3867.1130,-0.004982
3868.9767,-0.005013
3870.8403,-0.005315
3872.7040,-0.005365
3874.5677,-0.005189
3876.4314,-0.004978
3878.2950,-0.004932
3880.1587,-0.004906
3882.0224,-0.004501
3883.8860,-0.004617
3885.7497,-0.005320
3887.6134,-0.005349
3889.4770,-0.005055
3891.3407,-0.004786
3893.2044,-0.004772
3895.0680,-0.004825
3896.9317,-0.004856
3898.7954,-0.005041
3900.6590,-0.005112
3902.5227,-0.005058
3904.3864,-0.004743
3906.2501,-0.004454
3908.1137,-0.004839
3909.9774,-0.005142
3911.8411,-0.005002
3913.7047,-0.004893
3915.5684,-0.004988
3917.4321,-0.004990
3919.2957,-0.004813
3921.1594,-0.004517
3923.0231,-0.004575
3924.8867,-0.004744
3926.7504,-0.004887
3928.6141,-0.004949
3930.4777,-0.005074
3932.3414,-0.004992
3934.2051,-0.004848
3936.0688,-0.004847
3937.9324,-0.004851
3939.7961,-0.004664
3941.6598,-0.004504
3943.5234,-0.004627
3945.3871,-0.004760
3947.2508,-0.004736
3949.1144,-0.004753
3950.9781,-0.004737
3952.8418,-0.005080
3954.7054,-0.005050
3956.5691,-0.004502
3958.4328,-0.004394
3960.2965,-0.004674
3962.1601,-0.004870
3964.0238,-0.004802
3965.8875,-0.004591
3967.7511,-0.004762
3969.6148,-0.004733
3971.4785,-0.004725
3973.3421,-0.004878
3975.2058,-0.005023
3977.0695,-0.005081
3978.9331,-0.004585
3980.7968,-0.004256
3982.6605,-0.004562
3984.5241,-0.004882
3986.3878,-0.004872
3988.2515,-0.004573
3990.1152,-0.004407
3991.9788,-0.004650
3993.8425,-0.004795
3995.7062,-0.004642
3997.5698,-0.004607
3999.4335,-0.004704
