Wavenumber,Intensity
650.4205,0.030093
652.2841,0.028821
654.1478,0.026528
656.0115,0.026061
657.8751,0.026498
659.7388,0.026691
661.6025,0.026880
663.4661,0.026219
665.3298,0.026110
667.1935,0.025538
669.0571,0.024760
670.9208,0.025017
672.7845,0.024635
674.6481,0.025327
676.5118,0.026555
678.3755,0.025665
680.2392,0.024735
682.1028,0.024404
683.9665,0.024316
685.8302,0.024249
687.6938,0.024577
689.5575,0.024832
691.4212,0.024022
693.2848,0.023836
695.1485,0.023754
697.0122,0.023332
698.8758,0.023145
700.7395,0.022676
702.6032,0.022333
704.4669,0.022385
706.3305,0.022948
708.1942,0.022884
710.0579,0.022278
711.9215,0.022041
713.7852,0.022209
715.6489,0.021639
717.5125,0.021056
719.3762,0.020941
721.2399,0.020960
723.1035,0.021008
724.9672,0.020884
726.8309,0.020506
728.6945,0.020524
730.5582,0.020712
732.4219,0.020309
734.2856,0.019660
736.1492,0.019697
738.0129,0.019764
739.8766,0.019401
741.7402,0.019363
743.6039,0.019522
745.4676,0.019175
747.3312,0.018772
749.1949,0.018480
751.0586,0.018597
752.9222,0.018390
754.7859,0.018059
756.6496,0.017838
758.5132,0.018101
760.3769,0.017917
762.2406,0.017554
764.1043,0.017345
765.9679,0.017670
767.8316,0.017780
769.6953,0.017237
771.5589,0.017042
773.4226,0.017055
775.2863,0.016721
777.1499,0.016559
779.0136,0.016299
780.8773,0.015997
782.7409,0.016145
784.6046,0.016191
786.4683,0.015827
788.3320,0.015498
790.1956,0.015305
792.0593,0.015116
793.9230,0.014688
795.7866,0.014882
797.6503,0.014980
799.5140,0.014760
801.3776,0.014655
803.2413,0.014611
805.1050,0.014707
806.9686,0.014689
808.8323,0.014578
810.6960,0.014366
812.5596,0.014299
814.4233,0.014264
816.2870,0.014294
818.1507,0.014479
820.0143,0.014344
821.8780,0.013687
823.7417,0.013462
825.6053,0.013403
827.4690,0.013326
829.3327,0.013320
831.1963,0.013188
833.0600,0.012955
834.9237,0.012872
836.7873,0.012939
838.6510,0.012848
840.5147,0.012631
842.3784,0.012444
844.2420,0.012252
846.1057,0.012061
847.9694,0.011956
849.8330,0.011881
851.6967,0.011833
853.5604,0.011719
855.4240,0.011608
857.2877,0.011692
859.1514,0.011773
861.0150,0.011846
862.8787,0.011891
864.7424,0.011846
866.6060,0.011808
868.4697,0.012080
870.3334,0.012332
872.1971,0.012344
874.0607,0.012205
875.9244,0.012325
877.7881,0.012278
879.6517,0.012185
881.5154,0.012323
883.3791,0.012202
885.2427,0.012020
887.1064,0.011944
888.9701,0.011906
890.8337,0.011888
892.6974,0.011939
894.5611,0.011888
896.4247,0.011762
898.2884,0.011719
900.1521,0.011708
902.0158,0.011646
903.8794,0.011612
905.7431,0.011558
907.6068,0.011592
909.4704,0.011687
911.3341,0.011772
913.1978,0.011950
915.0614,0.012063
916.9251,0.012083
918.7888,0.012156
920.6524,0.012219
922.5161,0.012352
924.3798,0.012543
926.2435,0.012599
928.1071,0.012521
929.9708,0.012475
931.8345,0.012475
933.6981,0.012484
935.5618,0.012637
937.4255,0.012707
939.2891,0.012650
941.1528,0.012691
943.0165,0.012940
944.8801,0.013222
946.7438,0.013265
948.6075,0.013332
950.4711,0.013479
952.3348,0.013539
954.1985,0.013543
956.0622,0.013698
957.9258,0.014043
959.7895,0.014527
961.6532,0.014954
963.5168,0.015394
965.3805,0.015696
967.2442,0.015820
969.1078,0.015883
970.9715,0.015843
972.8352,0.015770
974.6988,0.015663
976.5625,0.015741
978.4262,0.016041
980.2899,0.016323
982.1535,0.016600
984.0172,0.016871
985.8809,0.017154
987.7445,0.017589
989.6082,0.017982
991.4719,0.018265
993.3355,0.018537
995.1992,0.018912
997.0629,0.019308
998.9265,0.019696
1000.7902,0.020066
1002.6539,0.020549
1004.5175,0.021021
1006.3812,0.021389
1008.2449,0.021995
1010.1086,0.022747
1011.9722,0.023412
1013.8359,0.024035
1015.6996,0.024594
1017.5632,0.025172
1019.4269,0.025631
1021.2906,0.025973
1023.1542,0.026241
1025.0179,0.026457
1026.8816,0.026822
1028.7452,0.027079
1030.6089,0.027179
1032.4726,0.027268
1034.3362,0.027358
1036.1999,0.027435
1038.0636,0.027426
1039.9273,0.027312
1041.7909,0.027218
1043.6546,0.027154
1045.5183,0.027040
1047.3819,0.026928
1049.2456,0.026883
1051.1093,0.026906
1052.9729,0.026919
1054.8366,0.026943
1056.7003,0.027024
1058.5639,0.027084
1060.4276,0.027097
1062.2913,0.027076
1064.1550,0.027162
1066.0186,0.027206
1067.8823,0.027063
1069.7460,0.026987
1071.6096,0.027000
1073.4733,0.026940
1075.3370,0.026703
1077.2006,0.026266
1079.0643,0.025691
1080.9280,0.025032
1082.7916,0.024408
1084.6553,0.023774
1086.5190,0.023012
1088.3826,0.022398
1090.2463,0.021955
1092.1100,0.021467
1093.9737,0.021119
1095.8373,0.020818
1097.7010,0.020351
1099.5647,0.020007
1101.4283,0.019793
1103.2920,0.019571
1105.1557,0.019519
1107.0193,0.019608
1108.8830,0.019625
1110.7467,0.019472
1112.6103,0.019400
1114.4740,0.019371
1116.3377,0.019172
1118.2014,0.018898
1120.0650,0.018632
1121.9287,0.018400
1123.7924,0.018143
1125.6560,0.017857
1127.5197,0.017656
1129.3834,0.017387
1131.2470,0.017104
1133.1107,0.016961
1134.9744,0.016904
1136.8380,0.016858
1138.7017,0.016822
1140.5654,0.016810
1142.4290,0.016883
1144.2927,0.016984
1146.1564,0.017009
1148.0201,0.017082
1149.8837,0.017186
1151.7474,0.017242
1153.6111,0.017327
1155.4747,0.017360
1157.3384,0.017267
1159.2021,0.017148
1161.0657,0.017047
1162.9294,0.016892
1164.7931,0.016623
1166.6567,0.016237
1168.5204,0.015794
1170.3841,0.015297
1172.2477,0.014750
1174.1114,0.014150
1175.9751,0.013566
1177.8388,0.013102
1179.7024,0.012787
1181.5661,0.012577
1183.4298,0.012442
1185.2934,0.012350
1187.1571,0.012291
1189.0208,0.012362
1190.8844,0.012423
1192.7481,0.012512
1194.6118,0.012724
1196.4754,0.012985
1198.3391,0.013259
1200.2028,0.013610
1202.0665,0.013894
1203.9301,0.014071
1205.7938,0.014288
1207.6575,0.014512
1209.5211,0.014674
1211.3848,0.014815
1213.2485,0.015068
1215.1121,0.015319
1216.9758,0.015510
1218.8395,0.015799
1220.7031,0.016147
1222.5668,0.016479
1224.4305,0.016706
1226.2941,0.016918
1228.1578,0.017114
1230.0215,0.017241
1231.8852,0.017412
1233.7488,0.017572
1235.6125,0.017592
1237.4762,0.017505
1239.3398,0.017433
1241.2035,0.017329
1243.0672,0.017178
1244.9308,0.016913
1246.7945,0.016569
1248.6582,0.016318
1250.5218,0.016201
1252.3855,0.016018
1254.2492,0.015769
1256.1129,0.015569
1257.9765,0.015399
1259.8402,0.015262
1261.7039,0.015107
1263.5675,0.014953
1265.4312,0.014849
1267.2949,0.014710
1269.1585,0.014520
1271.0222,0.014426
1272.8859,0.014337
1274.7495,0.014250
1276.6132,0.014222
1278.4769,0.014147
1280.3405,0.014075
1282.2042,0.014076
1284.0679,0.014117
1285.9316,0.014126
1287.7952,0.014055
1289.6589,0.014037
1291.5226,0.014112
1293.3862,0.014102
1295.2499,0.014079
1297.1136,0.014207
1298.9772,0.014379
1300.8409,0.014508
1302.7046,0.014600
1304.5682,0.014634
1306.4319,0.014675
1308.2956,0.014798
1310.1592,0.014870
1312.0229,0.014913
1313.8866,0.014926
1315.7503,0.014931
1317.6139,0.014822
1319.4776,0.014626
1321.3413,0.014534
1323.2049,0.014496
1325.0686,0.014382
1326.9323,0.014339
1328.7959,0.014467
1330.6596,0.014554
1332.5233,0.014669
1334.3869,0.014794
1336.2506,0.014852
1338.1143,0.014844
1339.9780,0.014764
1341.8416,0.014933
1343.7053,0.015141
1345.5690,0.015175
1347.4326,0.015170
1349.2963,0.015144
1351.1600,0.015144
1353.0236,0.015222
1354.8873,0.015361
1356.7510,0.015510
1358.6146,0.015692
1360.4783,0.015870
1362.3420,0.015961
1364.2056,0.016386
1366.0693,0.016987
1367.9330,0.017262
1369.7967,0.017564
1371.6603,0.017945
1373.5240,0.018092
1375.3877,0.018446
1377.2513,0.018839
1379.1150,0.018927
1380.9787,0.018950
1382.8423,0.019150
1384.7060,0.019253
1386.5697,0.019015
1388.4333,0.019023
1390.2970,0.019416
1392.1607,0.019704
1394.0244,0.019627
1395.8880,0.019690
1397.7517,0.019795
1399.6154,0.019737
1401.4790,0.019830
1403.3427,0.019644
1405.2064,0.019341
1407.0700,0.019147
1408.9337,0.018912
1410.7974,0.018693
1412.6610,0.018532
1414.5247,0.018573
1416.3884,0.018455
1418.2520,0.017618
1420.1157,0.017295
1421.9794,0.017614
1423.8431,0.017608
1425.7067,0.017653
1427.5704,0.017724
1429.4341,0.017820
1431.2977,0.018264
1433.1614,0.018873
1435.0251,0.018923
1436.8887,0.018565
1438.7524,0.019024
1440.6161,0.019405
1442.4797,0.019518
1444.3434,0.019685
1446.2071,0.019608
1448.0707,0.019422
1449.9344,0.019484
1451.7981,0.019663
1453.6618,0.019871
1455.5254,0.019134
1457.3891,0.017635
1459.2528,0.017699
1461.1164,0.018203
1462.9801,0.017808
1464.8438,0.016922
1466.7074,0.016674
1468.5711,0.016670
1470.4348,0.015955
1472.2984,0.014488
1474.1621,0.013681
1476.0258,0.013558
1477.8895,0.013666
1479.7531,0.013704
1481.6168,0.013725
1483.4805,0.014191
1485.3441,0.014760
1487.2078,0.015197
1489.0715,0.015408
1490.9351,0.016106
1492.7988,0.017186
1494.6625,0.017855
1496.5261,0.018464
1498.3898,0.019299
1500.2535,0.020126
1502.1171,0.021192
1503.9808,0.022095
1505.8445,0.022293
1507.7082,0.023188
1509.5718,0.024530
1511.4355,0.025441
1513.2992,0.026241
1515.1628,0.026419
1517.0265,0.026787
1518.8902,0.027240
1520.7538,0.026697
1522.6175,0.027130
1524.4812,0.027626
1526.3448,0.027532
1528.2085,0.028069
1530.0722,0.028685
1531.9359,0.028177
1533.7995,0.027978
1535.6632,0.029042
1537.5269,0.029110
1539.3905,0.027877
1541.2542,0.027099
1543.1179,0.027116
1544.9815,0.027260
1546.8452,0.027413
1548.7089,0.026773
1550.5725,0.026109
1552.4362,0.025637
1554.2999,0.025160
1556.1635,0.024676
1558.0272,0.022249
1559.8909,0.020115
1561.7546,0.021309
1563.6182,0.021336
1565.4819,0.020823
1567.3456,0.020134
1569.2092,0.018829
1571.0729,0.018729
1572.9366,0.019182
1574.8002,0.018286
1576.6639,0.017057
1578.5276,0.017272
1580.3912,0.017361
1582.2549,0.017128
1584.1186,0.017022
1585.9822,0.017028
1587.8459,0.017027
1589.7096,0.017059
1591.5733,0.017379
1593.4369,0.017751
1595.3006,0.018004
1597.1643,0.018362
1599.0279,0.018894
1600.8916,0.019458
1602.7553,0.019812
1604.6189,0.020440
1606.4826,0.021417
1608.3463,0.022288
1610.2099,0.023127
1612.0736,0.024222
1613.9373,0.025124
1615.8010,0.025206
1617.6646,0.026247
1619.5283,0.027932
1621.3920,0.028385
1623.2556,0.028551
1625.1193,0.029431
1626.9830,0.029837
1628.8466,0.030317
1630.7103,0.031367
1632.5740,0.031804
1634.4376,0.030495
1636.3013,0.029269
1638.1650,0.030019
1640.0286,0.030251
1641.8923,0.030247
1643.7560,0.029853
1645.6197,0.027941
1647.4833,0.026930
1649.3470,0.028354
1651.2107,0.027347
1653.0743,0.023208
1654.9380,0.022769
1656.8017,0.023994
1658.6653,0.023603
1660.5290,0.022409
1662.3927,0.020897
1664.2563,0.020279
1666.1200,0.020033
1667.9837,0.018635
1669.8474,0.016672
1671.7110,0.016152
1673.5747,0.015298
1675.4384,0.013769
1677.3020,0.013443
1679.1657,0.013348
1681.0294,0.012664
1682.8930,0.010617
1684.7567,0.007624
1686.6204,0.008028
1688.4840,0.008012
1690.3477,0.007178
1692.2114,0.006703
1694.0750,0.005846
1695.9387,0.004017
1697.8024,0.002915
1699.6661,0.000978
1701.5297,0.000108
1703.3934,0.000875
1705.2571,-0.000108
1707.1207,-0.000945
1708.9844,-0.000692
1710.8481,-0.000484
1712.7117,-0.000197
1714.5754,-0.000465
1716.4391,-0.001670
1718.3027,-0.002979
1720.1664,-0.002254
1722.0301,-0.001509
1723.8937,-0.001492
1725.7574,-0.001264
1727.6211,-0.000886
1729.4848,-0.000617
1731.3484,-0.000267
1733.2121,-0.000947
1735.0758,-0.001123
1736.9394,0.000623
1738.8031,0.001251
1740.6668,0.001221
1742.5304,0.001745
1744.3941,0.002024
1746.2578,0.001782
1748.1214,0.000817
1749.9851,-0.000700
1751.8488,-0.001871
1753.7125,-0.002028
1755.5761,-0.002622
1757.4398,-0.003591
1759.3035,-0.003847
1761.1671,-0.004425
1763.0308,-0.004933
1764.8945,-0.004714
1766.7581,-0.004648
1768.6218,-0.004701
1770.4855,-0.005136
1772.3491,-0.006213
1774.2128,-0.006122
1776.0765,-0.005410
1777.9401,-0.005158
1779.8038,-0.005522
1781.6675,-0.005854
1783.5312,-0.005811
1785.3948,-0.005652
1787.2585,-0.005192
1789.1222,-0.005016
1790.9858,-0.005734
1792.8495,-0.006349
1794.7132,-0.005897
1796.5768,-0.005518
1798.4405,-0.005489
1800.3042,-0.005830
1802.1678,-0.006095
1804.0315,-0.005875
1805.8952,-0.005615
1807.7589,-0.005549
1809.6225,-0.005752
1811.4862,-0.006223
1813.3499,-0.005954
1815.2135,-0.005455
1817.0772,-0.005469
1818.9409,-0.005580
1820.8045,-0.005444
1822.6682,-0.005500
1824.5319,-0.005911
1826.3955,-0.005762
1828.2592,-0.005618
1830.1229,-0.006127
1831.9865,-0.005820
1833.8502,-0.005444
1835.7139,-0.005723
1837.5776,-0.006020
1839.4412,-0.005716
1841.3049,-0.005440
1843.1686,-0.005885
1845.0322,-0.006466
1846.8959,-0.006210
1848.7596,-0.006056
1850.6232,-0.005819
1852.4869,-0.005564
1854.3506,-0.005488
1856.2142,-0.005578
1858.0779,-0.005870
1859.9416,-0.006124
1861.8052,-0.005962
1863.6689,-0.005602
1865.5326,-0.005279
1867.3963,-0.005496
1869.2599,-0.005991
1871.1236,-0.005934
1872.9873,-0.005538
1874.8509,-0.005525
1876.7146,-0.005724
1878.5783,-0.005865
1880.4419,-0.005591
1882.3056,-0.005323
1884.1693,-0.005558
1886.0329,-0.005746
1887.8966,-0.005783
1889.7603,-0.005709
1891.6240,-0.005606
1893.4876,-0.005854
1895.3513,-0.005733
1897.2150,-0.005670
1899.0786,-0.005772
1900.9423,-0.005543
1902.8060,-0.005074
1904.6696,-0.004979
1906.5333,-0.005012
1908.3970,-0.005437
1910.2606,-0.005894
1912.1243,-0.005897
1913.9880,-0.006166
1915.8516,-0.006141
1917.7153,-0.005841
1919.5790,-0.005684
1921.4427,-0.005646
1923.3063,-0.005798
1925.1700,-0.005746
1927.0337,-0.005849
1928.8973,-0.005827
1930.7610,-0.005723
1932.6247,-0.005897
1934.4883,-0.005961
1936.3520,-0.005723
1938.2157,-0.005369
1940.0793,-0.005262
1941.9430,-0.005533
1943.8067,-0.005629
1945.6704,-0.005803
1947.5340,-0.006342
1949.3977,-0.006253
1951.2614,-0.005452
1953.1250,-0.005010
1954.9887,-0.004936
1956.8524,-0.005364
1958.7160,-0.005781
1960.5797,-0.006728
1962.4434,-0.007514
1964.3070,-0.007122
1966.1707,-0.006528
1968.0344,-0.005714
1969.8980,-0.006355
1971.7617,-0.007894
1973.6254,-0.007206
1975.4891,-0.006364
1977.3527,-0.006749
1979.2164,-0.006438
1981.0801,-0.005628
1982.9437,-0.005446
1984.8074,-0.005544
1986.6711,-0.005027
1988.5347,-0.005227
1990.3984,-0.005269
1992.2621,-0.005743
1994.1257,-0.006548
1995.9894,-0.006471
1997.8531,-0.006331
1999.7167,-0.005423
2001.5804,-0.004404
2003.4441,-0.005014
2005.3078,-0.005804
2007.1714,-0.006094
2009.0351,-0.006394
2010.8988,-0.006821
2012.7624,-0.007088
2014.6261,-0.006217
2016.4898,-0.005730
2018.3534,-0.006215
2020.2171,-0.005415
2022.0808,-0.005053
2023.9444,-0.005253
2025.8081,-0.006001
2027.6718,-0.006966
2029.5355,-0.006575
2031.3991,-0.005822
2033.2628,-0.005712
2035.1265,-0.005278
2036.9901,-0.005245
2038.8538,-0.005923
2040.7175,-0.005720
2042.5811,-0.005366
2044.4448,-0.004537
2046.3085,-0.003797
2048.1721,-0.004324
2050.0358,-0.004566
2051.8995,-0.004504
2053.7631,-0.004425
2055.6268,-0.004316
2057.4905,-0.004655
2059.3542,-0.005289
2061.2178,-0.004964
2063.0815,-0.004141
2064.9452,-0.004537
2066.8088,-0.004958
2068.6725,-0.004183
2070.5362,-0.003662
2072.3998,-0.004228
2074.2635,-0.005136
2076.1272,-0.005023
2077.9908,-0.003952
2079.8545,-0.003957
2081.7182,-0.004266
2083.5819,-0.004592
2085.4455,-0.005310
2087.3092,-0.005551
2089.1729,-0.005243
2091.0365,-0.005084
2092.9002,-0.004410
2094.7639,-0.004352
2096.6275,-0.005014
2098.4912,-0.004788
2100.3549,-0.004703
2102.2185,-0.004927
2104.0822,-0.004743
2105.9459,-0.004441
2107.8095,-0.004533
2109.6732,-0.004994
2111.5369,-0.004875
2113.4006,-0.004917
2115.2642,-0.005456
2117.1279,-0.005279
2118.9916,-0.004794
2120.8552,-0.005295
2122.7189,-0.005676
2124.5826,-0.005568
2126.4462,-0.005377
2128.3099,-0.005803
2130.1736,-0.006538
2132.0372,-0.005668
2133.9009,-0.004703
2135.7646,-0.005812
2137.6282,-0.006463
2139.4919,-0.006457
2141.3556,-0.006645
2143.2193,-0.006666
2145.0829,-0.006310
2146.9466,-0.006270
2148.8103,-0.006296
2150.6739,-0.005706
2152.5376,-0.006255
2154.4013,-0.006700
2156.2649,-0.005441
2158.1286,-0.005120
2159.9923,-0.005721
2161.8559,-0.005026
2163.7196,-0.004431
2165.5833,-0.004837
2167.4470,-0.005246
2169.3106,-0.004492
2171.1743,-0.004521
2173.0380,-0.005592
2174.9016,-0.005642
2176.7653,-0.005041
2178.6290,-0.004432
2180.4926,-0.004038
2182.3563,-0.004496
2184.2200,-0.004710
2186.0836,-0.003922
2187.9473,-0.003756
2189.8110,-0.004595
2191.6746,-0.004429
2193.5383,-0.003572
2195.4020,-0.003452
2197.2657,-0.004081
2199.1293,-0.004832
2200.9930,-0.005200
2202.8567,-0.005485
2204.7203,-0.005276
2206.5840,-0.004132
2208.4477,-0.003862
2210.3113,-0.004765
2212.1750,-0.004685
2214.0387,-0.004720
2215.9023,-0.004907
2217.7660,-0.004491
2219.6297,-0.004726
2221.4934,-0.005156
2223.3570,-0.005374
2225.2207,-0.004638
2227.0844,-0.004085
2228.9480,-0.004595
2230.8117,-0.004577
2232.6754,-0.004188
2234.5390,-0.004174
2236.4027,-0.004887
2238.2664,-0.005336
2240.1300,-0.004744
2241.9937,-0.004510
2243.8574,-0.004216
2245.7210,-0.003764
2247.5847,-0.003882
2249.4484,-0.004180
2251.3121,-0.004613
2253.1757,-0.005190
2255.0394,-0.005224
2256.9031,-0.004621
2258.7667,-0.004545
2260.6304,-0.004513
2262.4941,-0.004155
2264.3577,-0.004336
2266.2214,-0.004647
2268.0851,-0.004149
2269.9487,-0.003729
2271.8124,-0.003810
2273.6761,-0.003996
2275.5397,-0.004338
2277.4034,-0.004419
2279.2671,-0.004274
2281.1308,-0.004348
2282.9944,-0.004229
2284.8581,-0.003932
2286.7218,-0.003807
2288.5854,-0.003925
2290.4491,-0.004149
2292.3128,-0.004443
2294.1764,-0.004648
2296.0401,-0.004347
2297.9038,-0.004130
2299.7674,-0.004359
2301.6311,-0.004575
2303.4948,-0.004702
2305.3585,-0.004646
2307.2221,-0.004314
2309.0858,-0.004072
2310.9495,-0.004473
2312.8131,-0.004772
2314.6768,-0.004706
2316.5405,-0.004928
2318.4041,-0.005178
2320.2678,-0.005093
2322.1315,-0.005012
2323.9951,-0.004879
2325.8588,-0.004780
2327.7225,-0.005238
2329.5861,-0.005707
2331.4498,-0.005993
2333.3135,-0.006244
2335.1772,-0.006016
2337.0408,-0.005774
2338.9045,-0.005957
2340.7682,-0.006126
2342.6318,-0.006131
2344.4955,-0.006111
2346.3592,-0.005762
2348.2228,-0.005229
2350.0865,-0.004823
2351.9502,-0.005305
2353.8138,-0.006517
2355.6775,-0.007344
2357.5412,-0.007570
2359.4049,-0.007328
2361.2685,-0.006642
2363.1322,-0.006248
2364.9959,-0.006961
2366.8595,-0.006730
2368.7232,-0.005421
2370.5869,-0.004978
2372.4505,-0.005208
2374.3142,-0.005335
2376.1779,-0.005148
2378.0415,-0.004975
2379.9052,-0.004892
2381.7689,-0.004728
2383.6325,-0.004674
2385.4962,-0.004763
2387.3599,-0.004768
2389.2236,-0.004543
2391.0872,-0.004308
2392.9509,-0.004233
2394.8146,-0.004316
2396.6782,-0.004561
2398.5419,-0.004596
2400.4056,-0.004469
2402.2692,-0.004417
2404.1329,-0.004118
2405.9966,-0.004000
2407.8602,-0.004314
2409.7239,-0.004366
2411.5876,-0.004288
2413.4512,-0.004209
2415.3149,-0.004052
2417.1786,-0.004185
2419.0423,-0.004393
2420.9059,-0.004217
2422.7696,-0.003852
2424.6333,-0.003761
2426.4969,-0.003876
2428.3606,-0.003941
2430.2243,-0.003885
2432.0879,-0.003934
2433.9516,-0.004084
2435.8153,-0.004147
2437.6789,-0.004180
2439.5426,-0.004055
2441.4063,-0.004000
2443.2700,-0.003819
2445.1336,-0.003784
2446.9973,-0.003752
2448.8610,-0.003497
2450.7246,-0.003587
2452.5883,-0.003884
2454.4520,-0.004088
2456.3156,-0.003978
2458.1793,-0.003794
2460.0430,-0.003822
2461.9066,-0.003531
2463.7703,-0.003257
2465.6340,-0.003350
2467.4976,-0.003631
2469.3613,-0.003513
2471.2250,-0.003248
2473.0887,-0.003052
2474.9523,-0.002882
2476.8160,-0.003128
2478.6797,-0.003513
2480.5433,-0.003662
2482.4070,-0.003676
2484.2707,-0.003512
2486.1343,-0.003309
2487.9980,-0.003282
2489.8617,-0.003297
2491.7253,-0.003266
2493.5890,-0.003288
2495.4527,-0.003206
2497.3164,-0.002897
2499.1800,-0.002732
2501.0437,-0.002965
2502.9074,-0.003133
2504.7710,-0.003035
2506.6347,-0.003061
2508.4984,-0.003077
2510.3620,-0.002808
2512.2257,-0.002954
2514.0894,-0.003149
2515.9530,-0.002891
2517.8167,-0.002993
2519.6804,-0.003152
2521.5440,-0.002883
2523.4077,-0.002782
2525.2714,-0.002841
2527.1351,-0.002826
2528.9987,-0.002724
2530.8624,-0.002670
2532.7261,-0.002724
2534.5897,-0.002905
2536.4534,-0.002878
2538.3171,-0.002716
2540.1807,-0.002799
2542.0444,-0.002717
2543.9081,-0.002783
2545.7717,-0.002750
2547.6354,-0.002291
2549.4991,-0.002100
2551.3627,-0.002262
2553.2264,-0.002511
2555.0901,-0.002670
2556.9538,-0.002639
2558.8174,-0.002376
2560.6811,-0.002217
2562.5448,-0.002384
2564.4084,-0.002349
2566.2721,-0.002025
2568.1358,-0.002090
2569.9994,-0.002353
2571.8631,-0.002320
2573.7268,-0.002238
2575.5904,-0.002452
2577.4541,-0.002597
2579.3178,-0.002447
2581.1815,-0.002059
2583.0451,-0.001882
2584.9088,-0.002088
2586.7725,-0.002045
2588.6361,-0.001878
2590.4998,-0.002050
2592.3635,-0.001922
2594.2271,-0.001522
2596.0908,-0.001641
2597.9545,-0.002002
2599.8181,-0.002083
2601.6818,-0.002023
2603.5455,-0.001904
2605.4091,-0.001767
2607.2728,-0.001862
2609.1365,-0.001817
2611.0002,-0.001673
2612.8638,-0.001672
2614.7275,-0.001590
2616.5912,-0.001372
2618.4548,-0.001301
2620.3185,-0.001545
2622.1822,-0.001495
2624.0458,-0.001213
2625.9095,-0.001133
2627.7732,-0.001058
2629.6368,-0.001084
2631.5005,-0.001248
2633.3642,-0.001299
2635.2279,-0.001390
2637.0915,-0.001568
2638.9552,-0.001470
2640.8189,-0.001249
2642.6825,-0.001214
2644.5462,-0.001129
2646.4099,-0.001106
2648.2735,-0.001207
2650.1372,-0.001266
2652.0009,-0.001337
2653.8645,-0.001309
2655.7282,-0.001151
2657.5919,-0.001057
2659.4555,-0.001065
2661.3192,-0.001015
2663.1829,-0.000968
2665.0466,-0.001062
2666.9102,-0.001069
2668.7739,-0.001009
2670.6376,-0.001125
2672.5012,-0.001047
2674.3649,-0.000889
2676.2286,-0.000954
2678.0922,-0.000954
2679.9559,-0.000897
2681.8196,-0.000857
2683.6832,-0.000751
2685.5469,-0.000716
2687.4106,-0.000757
2689.2742,-0.000804
2691.1379,-0.000714
2693.0016,-0.000468
2694.8653,-0.000468
2696.7289,-0.000667
2698.5926,-0.000756
2700.4563,-0.000624
2702.3199,-0.000465
2704.1836,-0.000538
2706.0473,-0.000503
2707.9109,-0.000273
2709.7746,-0.000122
2711.6383,-0.000150
2713.5019,-0.000182
2715.3656,-0.000097
2717.2293,0.000081
2719.0930,0.000241
2720.9566,0.000119
2722.8203,-0.000030
2724.6840,0.000124
2726.5476,0.000335
2728.4113,0.000348
2730.2750,0.000312
2732.1386,0.000339
2734.0023,0.000366
2735.8660,0.000434
2737.7296,0.000609
2739.5933,0.000589
2741.4570,0.000411
2743.3206,0.000495
2745.1843,0.000564
2747.0480,0.000485
2748.9117,0.000521
2750.7753,0.000815
2752.6390,0.001088
2754.5027,0.001087
2756.3663,0.001059
2758.2300,0.001094
2760.0937,0.001151
2761.9573,0.001179
2763.8210,0.001313
2765.6847,0.001461
2767.5483,0.001387
2769.4120,0.001407
2771.2757,0.001530
2773.1394,0.001501
2775.0030,0.001550
2776.8667,0.001644
2778.7304,0.001741
2780.5940,0.001961
2782.4577,0.002054
2784.3214,0.002164
2786.1850,0.002208
2788.0487,0.001965
2789.9124,0.001903
2791.7760,0.002139
2793.6397,0.002330
2795.5034,0.002403
2797.3670,0.002591
2799.2307,0.002805
2801.0944,0.002700
2802.9581,0.002598
2804.8217,0.002696
2806.6854,0.002909
2808.5491,0.003148
2810.4127,0.003094
2812.2764,0.003112
2814.1401,0.003367
2816.0037,0.003485
2817.8674,0.003580
2819.7311,0.003667
2821.5947,0.003791
2823.4584,0.003994
2825.3221,0.004118
2827.1857,0.004175
2829.0494,0.004166
2830.9131,0.004366
2832.7768,0.004647
2834.6404,0.004740
2836.5041,0.005122
2838.3678,0.005780
2840.2314,0.006367
2842.0951,0.006906
2843.9588,0.007420
2845.8224,0.008040
2847.6861,0.008634
2849.5498,0.008945
2851.4134,0.009160
2853.2771,0.009437
2855.1408,0.009321
2857.0045,0.008706
2858.8681,0.008240
2860.7318,0.008118
2862.5955,0.007801
2864.4591,0.007550
2866.3228,0.007654
2868.1865,0.007504
2870.0501,0.007467
2871.9138,0.007873
2873.7775,0.007973
2875.6411,0.007679
2877.5048,0.007620
2879.3685,0.007726
2881.2321,0.007728
2883.0958,0.007737
2884.9595,0.007654
2886.8232,0.007636
2888.6868,0.007832
2890.5505,0.008101
2892.4142,0.008371
2894.2778,0.008611
2896.1415,0.008831
2898.0052,0.008942
2899.8688,0.009038
2901.7325,0.009598
2903.5962,0.010389
2905.4598,0.010700
2907.3235,0.010878
2909.1872,0.011441
2911.0509,0.011940
2912.9145,0.012394
2914.7782,0.012880
2916.6419,0.013248
2918.5055,0.013871
2920.3692,0.014321
2922.2329,0.014268
2924.0965,0.014066
2925.9602,0.013842
2927.8239,0.013617
2929.6875,0.013148
2931.5512,0.012536
2933.4149,0.012162
2935.2785,0.011674
2937.1422,0.010894
2939.0059,0.010440
2940.8696,0.010389
2942.7332,0.010077
2944.5969,0.009548
2946.4606,0.009243
2948.3242,0.009213
2950.1879,0.009450
2952.0516,0.009603
2953.9152,0.009727
2955.7789,0.009814
2957.6426,0.009595
2959.5062,0.009343
2961.3699,0.009229
2963.2336,0.008938
2965.0972,0.008424
2966.9609,0.008005
2968.8246,0.007791
2970.6883,0.007655
2972.5519,0.007358
2974.4156,0.007048
2976.2793,0.006763
2978.1429,0.006646
2980.0066,0.006659
2981.8703,0.006642
2983.7339,0.006570
2985.5976,0.006401
2987.4613,0.006198
2989.3249,0.005891
2991.1886,0.005839
2993.0523,0.005881
2994.9160,0.005657
2996.7796,0.005628
2998.6433,0.005845
3000.5070,0.005826
3002.3706,0.005932
3004.2343,0.006314
3006.0980,0.006329
3007.9616,0.006181
3009.8253,0.006394
3011.6890,0.006439
3013.5526,0.006247
3015.4163,0.006408
3017.2800,0.006725
3019.1436,0.006622
3021.0073,0.006370
3022.8710,0.006478
3024.7347,0.006554
3026.5983,0.006545
3028.4620,0.006807
3030.3257,0.007090
3032.1893,0.007067
3034.0530,0.006975
3035.9167,0.007200
3037.7803,0.007549
3039.6440,0.007548
3041.5077,0.007348
3043.3713,0.007547
3045.2350,0.007807
3047.0987,0.007680
3048.9624,0.007619
3050.8260,0.007966
3052.6897,0.008303
3054.5534,0.008209
3056.4170,0.008063
3058.2807,0.008057
3060.1444,0.008200
3062.0080,0.008437
3063.8717,0.008406
3065.7354,0.008154
3067.5990,0.008117
3069.4627,0.008346
3071.3264,0.008415
3073.1900,0.008347
3075.0537,0.008408
3076.9174,0.008302
3078.7811,0.008163
3080.6447,0.008415
3082.5084,0.008459
3084.3721,0.008193
3086.2357,0.008221
3088.0994,0.008430
3089.9631,0.008422
3091.8267,0.008190
3093.6904,0.008355
3095.5541,0.008680
3097.4177,0.008449
3099.2814,0.008019
3101.1451,0.007875
3103.0087,0.007964
3104.8724,0.008062
3106.7361,0.008051
3108.5998,0.008115
3110.4634,0.008417
3112.3271,0.008731
3114.1908,0.008656
3116.0544,0.008466
3117.9181,0.008620
3119.7818,0.008793
3121.6454,0.008740
3123.5091,0.008688
3125.3728,0.008829
3127.2364,0.008858
3129.1001,0.008791
3130.9638,0.008846
3132.8275,0.008889
3134.6911,0.009071
3136.5548,0.009108
3138.4185,0.009143
3140.2821,0.009444
3142.1458,0.009601
3144.0095,0.009848
3145.8731,0.010132
3147.7368,0.009982
3149.6005,0.009720
3151.4641,0.009979
3153.3278,0.010173
3155.1915,0.009932
3157.0551,0.010048
3158.9188,0.010456
3160.7825,0.010708
3162.6462,0.010904
3164.5098,0.010980
3166.3735,0.010841
3168.2372,0.010953
3170.1008,0.011437
3171.9645,0.011764
3173.8282,0.011758
3175.6918,0.011588
3177.5555,0.011605
3179.4192,0.011743
3181.2828,0.011921
3183.1465,0.012269
3185.0102,0.012526
3186.8739,0.012492
3188.7375,0.012307
3190.6012,0.012101
3192.4649,0.012101
3194.3285,0.012516
3196.1922,0.012740
3198.0559,0.012614
3199.9195,0.012695
3201.7832,0.012835
3203.6469,0.012993
3205.5105,0.013248
3207.3742,0.013198
3209.2379,0.013076
3211.1015,0.013171
3212.9652,0.013298
3214.8289,0.013392
3216.6926,0.013320
3218.5562,0.013284
3220.4199,0.013314
3222.2836,0.013267
3224.1472,0.013378
3226.0109,0.013382
3227.8746,0.013230
3229.7382,0.013218
3231.6019,0.013521
3233.4656,0.013856
3235.3292,0.013839
3237.1929,0.013752
3239.0566,0.013873
3240.9202,0.013863
3242.7839,0.013948
3244.6476,0.014065
3246.5113,0.014043
3248.3749,0.014414
3250.2386,0.014808
3252.1023,0.014747
3253.9659,0.014501
3255.8296,0.014189
3257.6933,0.014172
3259.5569,0.014695
3261.4206,0.014885
3263.2843,0.014545
3265.1479,0.014442
3267.0116,0.014632
3268.8753,0.014853
3270.7390,0.015071
3272.6026,0.015326
3274.4663,0.015229
3276.3300,0.014817
3278.1936,0.014872
3280.0573,0.014975
3281.9210,0.014697
3283.7846,0.014564
3285.6483,0.014473
3287.5120,0.014447
3289.3756,0.014484
3291.2393,0.014450
3293.1030,0.014392
3294.9666,0.014053
3296.8303,0.013939
3298.6940,0.013952
3300.5577,0.013475
3302.4213,0.013067
3304.2850,0.013186
3306.1487,0.013232
3308.0123,0.013063
3309.8760,0.012919
3311.7397,0.012802
3313.6033,0.012876
3315.4670,0.012916
3317.3307,0.012604
3319.1943,0.012065
3321.0580,0.011736
3322.9217,0.011950
3324.7854,0.012032
3326.6490,0.011389
3328.5127,0.011113
3330.3764,0.011491
3332.2400,0.011621
3334.1037,0.011368
3335.9674,0.011007
3337.8310,0.011023
3339.6947,0.011103
3341.5584,0.010859
3343.4220,0.010778
3345.2857,0.010813
3347.1494,0.010585
3349.0130,0.010442
3350.8767,0.010523
3352.7404,0.010160
3354.6041,0.009714
3356.4677,0.009917
3358.3314,0.009868
3360.1951,0.009665
3362.0587,0.009670
3363.9224,0.009327
3365.7861,0.009160
3367.6497,0.009631
3369.5134,0.009891
3371.3771,0.009299
3373.2407,0.008930
3375.1044,0.008828
3376.9681,0.008591
3378.8317,0.008691
3380.6954,0.009006
3382.5591,0.009203
3384.4228,0.009109
3386.2864,0.008756
3388.1501,0.008617
3390.0138,0.008654
3391.8774,0.008496
3393.7411,0.008216
3395.6048,0.008152
3397.4684,0.008599
3399.3321,0.008743
3401.1958,0.007968
3403.0594,0.007485
3404.9231,0.007861
3406.7868,0.008253
3408.6505,0.007738
3410.5141,0.006984
3412.3778,0.007009
3414.2415,0.007394
3416.1051,0.007486
3417.9688,0.007419
3419.8325,0.007492
3421.6961,0.007594
3423.5598,0.007523
3425.4235,0.007264
3427.2871,0.006934
3429.1508,0.006395
3431.0145,0.006186
3432.8781,0.006385
3434.7418,0.006346
3436.6055,0.006240
3438.4692,0.006068
3440.3328,0.005698
3442.1965,0.005674
3444.0602,0.006219
3445.9238,0.006137
3447.7875,0.005492
3449.6512,0.005112
3451.5148,0.004953
3453.3785,0.005132
3455.2422,0.005448
3457.1058,0.005393
3458.9695,0.005038
3460.8332,0.004815
3462.6969,0.004920
3464.5605,0.005192
3466.4242,0.005056
3468.2879,0.004540
3470.1515,0.004193
3472.0152,0.003967
3473.8789,0.004160
3475.7425,0.004534
3477.6062,0.004140
3479.4699,0.003605
3481.3335,0.003597
3483.1972,0.003793
3485.0609,0.003664
3486.9245,0.002985
3488.7882,0.002583
3490.6519,0.002819
3492.5156,0.003234
3494.3792,0.003112
3496.2429,0.002909
3498.1066,0.002824
3499.9702,0.002548
3501.8339,0.002718
3503.6976,0.002747
3505.5612,0.001477
3507.4249,0.000939
3509.2886,0.001913
3511.1522,0.002251
3513.0159,0.002125
3514.8796,0.001918
3516.7432,0.001318
3518.6069,0.001008
3520.4706,0.001153
3522.3343,0.000725
3524.1979,0.000136
3526.0616,0.000259
3527.9253,0.000602
3529.7889,0.001064
3531.6526,0.001425
3533.5163,0.000805
3535.3799,-0.000153
3537.2436,-0.000145
3539.1073,0.000492
3540.9709,0.000523
3542.8346,-0.000114
3544.6983,-0.000379
3546.5620,0.000002
3548.4256,-0.000199
3550.2893,-0.000896
3552.1530,-0.001171
3554.0166,-0.001118
3555.8803,-0.001015
3557.7440,-0.001032
3559.6076,-0.001418
3561.4713,-0.001783
3563.3350,-0.001769
3565.1986,-0.001569
3567.0623,-0.001929
3568.9260,-0.002761
3570.7896,-0.002338
3572.6533,-0.001868
3574.5170,-0.001923
3576.3807,-0.001831
3578.2443,-0.001979
3580.1080,-0.002361
3581.9717,-0.002857
3583.8353,-0.002955
3585.6990,-0.002851
3587.5627,-0.003603
3589.4263,-0.004078
3591.2900,-0.003317
3593.1537,-0.003187
3595.0173,-0.003814
3596.8810,-0.003523
3598.7447,-0.003289
3600.6084,-0.003719
3602.4720,-0.003666
3604.3357,-0.003226
3606.1994,-0.003532
3608.0630,-0.004123
3609.9267,-0.004079
3611.7904,-0.003951
3613.6540,-0.004501
3615.5177,-0.004694
3617.3814,-0.004585
3619.2450,-0.005097
3621.1087,-0.005282
3622.9724,-0.004792
3624.8360,-0.004518
3626.6997,-0.004466
3628.5634,-0.005422
3630.4271,-0.006633
3632.2907,-0.005583
3634.1544,-0.004841
3636.0181,-0.004935
3637.8817,-0.004904
3639.7454,-0.004960
3641.6091,-0.005182
3643.4727,-0.005332
3645.3364,-0.005171
3647.2001,-0.005823
3649.0637,-0.007378
3650.9274,-0.007488
3652.7911,-0.005969
3654.6547,-0.005096
3656.5184,-0.005725
3658.3821,-0.006490
3660.2458,-0.006518
3662.1094,-0.006376
3663.9731,-0.006108
3665.8368,-0.005800
3667.7004,-0.005751
3669.5641,-0.006522
3671.4278,-0.007231
3673.2914,-0.007032
3675.1551,-0.007390
3677.0188,-0.008044
3678.8824,-0.007114
3680.7461,-0.006492
3682.6098,-0.006533
3684.4735,-0.006390
3686.3371,-0.006168
3688.2008,-0.006527
3690.0645,-0.007383
3691.9281,-0.007436
3693.7918,-0.007027
3695.6555,-0.006664
3697.5191,-0.006568
3699.3828,-0.006767
3701.2465,-0.007008
3703.1101,-0.007069
3704.9738,-0.006643
3706.8375,-0.006389
3708.7011,-0.006832
3710.5648,-0.007533
3712.4285,-0.007917
3714.2922,-0.007502
3716.1558,-0.006756
3718.0195,-0.006576
3719.8832,-0.006865
3721.7468,-0.007100
3723.6105,-0.007009
3725.4742,-0.006940
3727.3378,-0.006917
3729.2015,-0.006569
3731.0652,-0.006391
3732.9288,-0.006915
3734.7925,-0.007341
3736.6562,-0.007643
3738.5199,-0.007815
3740.3835,-0.007184
3742.2472,-0.006761
3744.1109,-0.007323
3745.9745,-0.008136
3747.8382,-0.006686
3749.7019,-0.006574
3751.5655,-0.008183
3753.4292,-0.007884
3755.2929,-0.006823
3757.1565,-0.006657
3759.0202,-0.007250
3760.8839,-0.007555
3762.7475,-0.006749
3764.6112,-0.006224
3766.4749,-0.006784
3768.3386,-0.007118
3770.2022,-0.007211
3772.0659,-0.007212
3773.9296,-0.006862
3775.7932,-0.006642
3777.6569,-0.006825
3779.5206,-0.007401
3781.3842,-0.007638
3783.2479,-0.007140
3785.1116,-0.006932
3786.9752,-0.006873
3788.8389,-0.006977
3790.7026,-0.007390
3792.5662,-0.007191
3794.4299,-0.006484
3796.2936,-0.006515
3798.1573,-0.006923
3800.0209,-0.006847
3801.8846,-0.007810
3803.7483,-0.008454
3805.6119,-0.007673
3807.4756,-0.007623
3809.3393,-0.007222
3811.2029,-0.006433
3813.0666,-0.006255
3814.9303,-0.006434
3816.7939,-0.007595
3818.6576,-0.007833
3820.5213,-0.007498
3822.3850,-0.008251
3824.2486,-0.007244
3826.1123,-0.006363
3827.9760,-0.006723
3829.8396,-0.006607
3831.7033,-0.006657
3833.5670,-0.007272
3835.4306,-0.007330
3837.2943,-0.007366
3839.1580,-0.007680
3841.0216,-0.007695
3842.8853,-0.007514
3844.7490,-0.007493
3846.6126,-0.006811
3848.4763,-0.005941
3850.3400,-0.006000
3852.2037,-0.007025
3854.0673,-0.008935
3855.9310,-0.009024
3857.7947,-0.007231
3859.6583,-0.006727
3861.5220,-0.006861
3863.3857,-0.007037
3865.2493,-0.007209
3867.1130,-0.007118
3868.9767,-0.006908
3870.8403,-0.007642
3872.7040,-0.008006
3874.5677,-0.007582
3876.4314,-0.007411
3878.2950,-0.006692
3880.1587,-0.006794
3882.0224,-0.007413
3883.8860,-0.007099
3885.7497,-0.007214
3887.6134,-0.007382
3889.4770,-0.007118
3891.3407,-0.007515
3893.2044,-0.007745
3895.0680,-0.007102
3896.9317,-0.006591
3898.7954,-0.006680
3900.6590,-0.007132
3902.5227,-0.007342
3904.3864,-0.007732
3906.2501,-0.007852
3908.1137,-0.007415
3909.9774,-0.007290
3911.8411,-0.006978
3913.7047,-0.006647
3915.5684,-0.007068
3917.4321,-0.007493
3919.2957,-0.007331
3921.1594,-0.006840
3923.0231,-0.006877
3924.8867,-0.007272
3926.7504,-0.007059
3928.6141,-0.006953
3930.4777,-0.007287
3932.3414,-0.007450
3934.2051,-0.007359
3936.0688,-0.007212
3937.9324,-0.007121
3939.7961,-0.006986
3941.6598,-0.006890
3943.5234,-0.007194
3945.3871,-0.007582
3947.2508,-0.007447
3949.1144,-0.007427
3950.9781,-0.007541
3952.8418,-0.007429
3954.7054,-0.007164
3956.5691,-0.006998
3958.4328,-0.007015
3960.2965,-0.006955
3962.1601,-0.007114
3964.0238,-0.007587
3965.8875,-0.007556
3967.7511,-0.007297
3969.6148,-0.007082
3971.4785,-0.006932
3973.3421,-0.006903
3975.2058,-0.006835
3977.0695,-0.006676
3978.9331,-0.006590
3980.7968,-0.006951
3982.6605,-0.007224
3984.5241,-0.006966
3986.3878,-0.007028
3988.2515,-0.007355
3990.1152,-0.007404
3991.9788,-0.007512
3993.8425,-0.007550
3995.7062,-0.007101
3997.5698,-0.006788
3999.4335,-0.007022
