Wavenumber,Intensity
650.4205,0.191375
652.2841,0.186105
654.1478,0.186251
656.0115,0.188831
657.8751,0.187445
659.7388,0.185717
661.6025,0.184921
663.4661,0.184588
665.3298,0.183197
667.1935,0.185910
669.0571,0.192060
670.9208,0.186548
672.7845,0.182791
674.6481,0.183218
676.5118,0.183339
678.3755,0.181453
680.2392,0.180541
682.1028,0.180943
683.9665,0.180144
685.8302,0.178973
687.6938,0.178326
689.5575,0.178166
691.4212,0.178031
693.2848,0.177905
695.1485,0.179008
697.0122,0.179624
698.8758,0.177816
700.7395,0.175454
702.6032,0.174240
704.4669,0.174042
706.3305,0.172830
708.1942,0.171128
710.0579,0.170610
711.9215,0.170215
713.7852,0.169489
715.6489,0.169367
717.5125,0.169558
719.3762,0.169687
721.2399,0.168967
723.1035,0.166995
724.9672,0.163349
726.8309,0.159784
728.6945,0.155666
730.5582,0.151261
732.4219,0.148566
734.2856,0.146745
736.1492,0.144148
738.0129,0.140946
739.8766,0.138360
741.7402,0.136692
743.6039,0.135100
745.4676,0.133431
747.3312,0.131560
749.1949,0.129060
751.0586,0.126628
752.9222,0.125240
754.7859,0.124331
756.6496,0.123357
758.5132,0.122231
760.3769,0.121470
762.2406,0.120997
764.1043,0.120191
765.9679,0.118825
767.8316,0.118085
769.6953,0.117562
771.5589,0.116338
773.4226,0.114739
775.2863,0.113167
777.1499,0.111782
779.0136,0.110473
780.8773,0.108680
782.7409,0.107502
784.6046,0.106366
786.4683,0.105095
788.3320,0.104172
790.1956,0.102962
792.0593,0.101733
793.9230,0.101012
795.7866,0.100298
797.6503,0.099777
799.5140,0.099815
801.3776,0.100039
803.2413,0.099907
805.1050,0.099357
806.9686,0.098279
808.8323,0.097393
810.6960,0.096909
812.5596,0.096274
814.4233,0.095740
816.2870,0.095581
818.1507,0.095382
820.0143,0.094793
821.8780,0.093784
823.7417,0.092690
825.6053,0.091362
827.4690,0.090214
829.3327,0.089609
831.1963,0.089104
833.0600,0.088211
834.9237,0.087293
836.7873,0.086357
838.6510,0.085534
840.5147,0.084908
842.3784,0.084077
844.2420,0.083056
846.1057,0.082339
847.9694,0.081965
849.8330,0.081655
851.6967,0.081395
853.5604,0.081140
855.4240,0.080690
857.2877,0.080435
859.1514,0.080549
861.0150,0.080609
862.8787,0.080537
864.7424,0.080608
866.6060,0.080778
868.4697,0.080968
870.3334,0.081066
872.1971,0.081063
874.0607,0.080782
875.9244,0.080309
877.7881,0.080040
879.6517,0.079618
881.5154,0.078917
883.3791,0.078620
885.2427,0.078438
887.1064,0.078064
888.9701,0.078013
890.8337,0.078232
892.6974,0.078291
894.5611,0.078187
896.4247,0.078197
898.2884,0.078205
900.1521,0.077995
902.0158,0.077847
903.8794,0.077855
905.7431,0.077997
907.6068,0.078464
909.4704,0.079057
911.3341,0.079815
913.1978,0.080698
915.0614,0.081312
916.9251,0.081676
918.7888,0.081926
920.6524,0.082032
922.5161,0.081875
924.3798,0.081684
926.2435,0.081518
928.1071,0.081538
929.9708,0.081784
931.8345,0.082032
933.6981,0.082327
935.5618,0.082815
937.4255,0.083256
939.2891,0.083941
941.1528,0.084954
943.0165,0.086251
944.8801,0.087650
946.7438,0.088811
948.6075,0.089807
950.4711,0.090842
952.3348,0.091942
954.1985,0.093346
956.0622,0.095295
957.9258,0.097683
959.7895,0.100568
961.6532,0.103978
963.5168,0.107237
965.3805,0.109720
967.2442,0.111158
969.1078,0.111481
970.9715,0.110948
972.8352,0.110063
974.6988,0.109254
976.5625,0.109048
978.4262,0.109396
980.2899,0.110368
982.1535,0.111723
984.0172,0.113333
985.8809,0.115280
987.7445,0.117479
989.6082,0.119819
991.4719,0.122451
993.3355,0.125311
995.1992,0.128271
997.0629,0.131197
998.9265,0.133993
1000.7902,0.136545
1002.6539,0.138827
1004.5175,0.141269
1006.3812,0.144178
1008.2449,0.147457
1010.1086,0.151099
1011.9722,0.155183
1013.8359,0.159577
1015.6996,0.164076
1017.5632,0.168435
1019.4269,0.172136
1021.2906,0.174984
1023.1542,0.176973
1025.0179,0.178604
1026.8816,0.180142
1028.7452,0.181597
1030.6089,0.182705
1032.4726,0.183380
1034.3362,0.183629
1036.1999,0.183448
1038.0636,0.182762
1039.9273,0.181892
1041.7909,0.181058
1043.6546,0.180443
1045.5183,0.180115
1047.3819,0.179939
1049.2456,0.180071
1051.1093,0.180639
1052.9729,0.181191
1054.8366,0.181652
1056.7003,0.182054
1058.5639,0.182391
1060.4276,0.182825
1062.2913,0.183440
1064.1550,0.184207
1066.0186,0.185163
1067.8823,0.186210
1069.7460,0.187358
1071.6096,0.188317
1073.4733,0.188786
1075.3370,0.188811
1077.2006,0.188263
1079.0643,0.187073
1080.9280,0.185325
1082.7916,0.182849
1084.6553,0.179836
1086.5190,0.176692
1088.3826,0.173700
1090.2463,0.171006
1092.1100,0.168629
1093.9737,0.166503
1095.8373,0.164383
1097.7010,0.162084
1099.5647,0.159649
1101.4283,0.156968
1103.2920,0.154389
1105.1557,0.152143
1107.0193,0.150304
1108.8830,0.149199
1110.7467,0.149061
1112.6103,0.149604
1114.4740,0.150325
1116.3377,0.150717
1118.2014,0.150241
1120.0650,0.148863
1121.9287,0.146759
1123.7924,0.144503
1125.6560,0.142670
1127.5197,0.141638
1129.3834,0.141970
1131.2470,0.143569
1133.1107,0.146012
1134.9744,0.148993
1136.8380,0.152024
1138.7017,0.154614
1140.5654,0.156799
1142.4290,0.158484
1144.2927,0.159746
1146.1564,0.161012
1148.0201,0.162448
1149.8837,0.164075
1151.7474,0.165784
1153.6111,0.167198
1155.4747,0.168169
1157.3384,0.168700
1159.2021,0.168679
1161.0657,0.167901
1162.9294,0.166271
1164.7931,0.163916
1166.6567,0.160685
1168.5204,0.156467
1170.3841,0.151657
1172.2477,0.146371
1174.1114,0.140744
1175.9751,0.135232
1177.8388,0.130128
1179.7024,0.125696
1181.5661,0.122177
1183.4298,0.119556
1185.2934,0.117642
1187.1571,0.116097
1189.0208,0.114860
1190.8844,0.114122
1192.7481,0.113725
1194.6118,0.113393
1196.4754,0.113283
1198.3391,0.113529
1200.2028,0.114076
1202.0665,0.114788
1203.9301,0.115706
1205.7938,0.116725
1207.6575,0.117645
1209.5211,0.118580
1211.3848,0.119664
1213.2485,0.120958
1215.1121,0.122313
1216.9758,0.123924
1218.8395,0.125936
1220.7031,0.128045
1222.5668,0.130160
1224.4305,0.132219
1226.2941,0.134238
1228.1578,0.135940
1230.0215,0.137337
1231.8852,0.138400
1233.7488,0.139027
1235.6125,0.139356
1237.4762,0.139262
1239.3398,0.138506
1241.2035,0.137255
1243.0672,0.135601
1244.9308,0.133542
1246.7945,0.131116
1248.6582,0.128671
1250.5218,0.126564
1252.3855,0.124787
1254.2492,0.123234
1256.1129,0.121827
1257.9765,0.120578
1259.8402,0.119529
1261.7039,0.118462
1263.5675,0.117339
1265.4312,0.116420
1267.2949,0.115533
1269.1585,0.114641
1271.0222,0.114084
1272.8859,0.113648
1274.7495,0.113229
1276.6132,0.112780
1278.4769,0.112189
1280.3405,0.111611
1282.2042,0.110826
1284.0679,0.109852
1285.9316,0.108936
1287.7952,0.108277
1289.6589,0.107964
1291.5226,0.107988
1293.3862,0.108219
1295.2499,0.108462
1297.1136,0.108791
1298.9772,0.109253
1300.8409,0.109556
1302.7046,0.109770
1304.5682,0.109938
1306.4319,0.110016
1308.2956,0.110157
1310.1592,0.110374
1312.0229,0.110649
1313.8866,0.110709
1315.7503,0.110377
1317.6139,0.110248
1319.4776,0.109915
1321.3413,0.108791
1323.2049,0.107405
1325.0686,0.106231
1326.9323,0.105299
1328.7959,0.104700
1330.6596,0.104412
1332.5233,0.104335
1334.3869,0.104456
1336.2506,0.105113
1338.1143,0.106940
1339.9780,0.108913
1341.8416,0.108974
1343.7053,0.108639
1345.5690,0.108837
1347.4326,0.109145
1349.2963,0.109398
1351.1600,0.109387
1353.0236,0.109470
1354.8873,0.109828
1356.7510,0.109887
1358.6146,0.109977
1360.4783,0.111802
1362.3420,0.115298
1364.2056,0.117264
1366.0693,0.117813
1367.9330,0.119493
1369.7967,0.120743
1371.6603,0.122217
1373.5240,0.126233
1375.3877,0.129629
1377.2513,0.130154
1379.1150,0.129643
1380.9787,0.127537
1382.8423,0.124947
1384.7060,0.123412
1386.5697,0.124168
1388.4333,0.123852
1390.2970,0.121418
1392.1607,0.120544
1394.0244,0.122538
1395.8880,0.123986
1397.7517,0.124060
1399.6154,0.124071
1401.4790,0.121492
1403.3427,0.119891
1405.2064,0.119385
1407.0700,0.117613
1408.9337,0.116357
1410.7974,0.116483
1412.6610,0.116381
1414.5247,0.115747
1416.3884,0.115875
1418.2520,0.118408
1420.1157,0.118088
1421.9794,0.114537
1423.8431,0.113849
1425.7067,0.113677
1427.5704,0.114434
1429.4341,0.117759
1431.2977,0.120209
1433.1614,0.121173
1435.0251,0.125768
1436.8887,0.133941
1438.7524,0.134519
1440.6161,0.133637
1442.4797,0.134444
1444.3434,0.134905
1446.2071,0.136591
1448.0707,0.139298
1449.9344,0.139591
1451.7981,0.138868
1453.6618,0.138894
1455.5254,0.143459
1457.3891,0.150494
1459.2528,0.144928
1461.1164,0.138237
1462.9801,0.136450
1464.8438,0.137159
1466.7074,0.131313
1468.5711,0.120359
1470.4348,0.110085
1472.2984,0.103339
1474.1621,0.097321
1476.0258,0.093035
1477.8895,0.089791
1479.7531,0.088163
1481.6168,0.088297
1483.4805,0.088053
1485.3441,0.089000
1487.2078,0.093398
1489.0715,0.100335
1490.9351,0.104663
1492.7988,0.104159
1494.6625,0.107341
1496.5261,0.116476
1498.3898,0.122510
1500.2535,0.123449
1502.1171,0.122626
1503.9808,0.124898
1505.8445,0.139623
1507.7082,0.154962
1509.5718,0.152899
1511.4355,0.152724
1513.2992,0.154333
1515.1628,0.156845
1517.0265,0.159847
1518.8902,0.160267
1520.7538,0.164624
1522.6175,0.167975
1524.4812,0.167241
1526.3448,0.168950
1528.2085,0.168898
1530.0722,0.167824
1531.9359,0.169459
1533.7995,0.171674
1535.6632,0.167470
1537.5269,0.165916
1539.3905,0.172366
1541.2542,0.175667
1543.1179,0.171260
1544.9815,0.166997
1546.8452,0.161658
1548.7089,0.157792
1550.5725,0.153640
1552.4362,0.148536
1554.2999,0.143289
1556.1635,0.139720
1558.0272,0.143499
1559.8909,0.142515
1561.7546,0.132192
1563.6182,0.126546
1565.4819,0.122704
1567.3456,0.119895
1569.2092,0.119098
1571.0729,0.115561
1572.9366,0.111120
1574.8002,0.111045
1576.6639,0.112584
1578.5276,0.109404
1580.3912,0.106692
1582.2549,0.106023
1584.1186,0.105978
1585.9822,0.106235
1587.8459,0.106916
1589.7096,0.108166
1591.5733,0.109896
1593.4369,0.112308
1595.3006,0.115164
1597.1643,0.117848
1599.0279,0.120697
1600.8916,0.124544
1602.7553,0.129173
1604.6189,0.133688
1606.4826,0.138684
1608.3463,0.144632
1610.2099,0.149727
1612.0736,0.153383
1613.9373,0.157739
1615.8010,0.167257
1617.6646,0.175296
1619.5283,0.175735
1621.3920,0.178970
1623.2556,0.186163
1625.1193,0.189918
1626.9830,0.192401
1628.8466,0.194102
1630.7103,0.192952
1632.5740,0.192355
1634.4376,0.196451
1636.3013,0.199719
1638.1650,0.195184
1640.0286,0.190486
1641.8923,0.186517
1643.7560,0.183350
1645.6197,0.182980
1647.4833,0.179738
1649.3470,0.172924
1651.2107,0.170808
1653.0743,0.173117
1654.9380,0.165203
1656.8017,0.156550
1658.6653,0.149927
1660.5290,0.144695
1662.3927,0.139803
1664.2563,0.133628
1666.1200,0.127676
1667.9837,0.123942
1669.8474,0.119868
1671.7110,0.113982
1673.5747,0.109390
1675.4384,0.105660
1677.3020,0.100021
1679.1657,0.094613
1681.0294,0.090029
1682.8930,0.087655
1684.7567,0.083730
1686.6204,0.077416
1688.4840,0.072370
1690.3477,0.067372
1692.2114,0.062192
1694.0750,0.058053
1695.9387,0.053992
1697.8024,0.049768
1699.6661,0.046969
1701.5297,0.043224
1703.3934,0.039919
1705.2571,0.037909
1707.1207,0.035864
1708.9844,0.034149
1710.8481,0.032678
1712.7117,0.031663
1714.5754,0.031607
1716.4391,0.033068
1718.3027,0.034876
1720.1664,0.035250
1722.0301,0.036240
1723.8937,0.039118
1725.7574,0.042740
1727.6211,0.047166
1729.4848,0.053817
1731.3484,0.062808
1733.2121,0.076850
1735.0758,0.093826
1736.9394,0.101759
1738.8031,0.110929
1740.6668,0.121592
1742.5304,0.125392
1744.3941,0.124141
1746.2578,0.118874
1748.1214,0.109401
1749.9851,0.096582
1751.8488,0.081250
1753.7125,0.067022
1755.5761,0.054479
1757.4398,0.042739
1759.3035,0.033363
1761.1671,0.026013
1763.0308,0.020160
1764.8945,0.016549
1766.7581,0.013787
1768.6218,0.011838
1770.4855,0.010346
1772.3491,0.009194
1774.2128,0.008309
1776.0765,0.007722
1777.9401,0.006924
1779.8038,0.006337
1781.6675,0.005970
1783.5312,0.005608
1785.3948,0.005340
1787.2585,0.005233
1789.1222,0.004831
1790.9858,0.004486
1792.8495,0.004406
1794.7132,0.004154
1796.5768,0.003666
1798.4405,0.003514
1800.3042,0.003518
1802.1678,0.003716
1804.0315,0.003594
1805.8952,0.003182
1807.7589,0.002855
1809.6225,0.002763
1811.4862,0.002596
1813.3499,0.002281
1815.2135,0.001951
1817.0772,0.001936
1818.9409,0.002003
1820.8045,0.002036
1822.6682,0.001913
1824.5319,0.001931
1826.3955,0.002019
1828.2592,0.001846
1830.1229,0.001711
1831.9865,0.001728
1833.8502,0.001562
1835.7139,0.001569
1837.5776,0.001570
1839.4412,0.001345
1841.3049,0.001224
1843.1686,0.001312
1845.0322,0.001137
1846.8959,0.001078
1848.7596,0.001174
1850.6232,0.001247
1852.4869,0.001191
1854.3506,0.001042
1856.2142,0.000904
1858.0779,0.000876
1859.9416,0.000944
1861.8052,0.001023
1863.6689,0.000850
1865.5326,0.000617
1867.3963,0.000505
1869.2599,0.001167
1871.1236,0.001386
1872.9873,0.001151
1874.8509,0.001146
1876.7146,0.001132
1878.5783,0.001206
1880.4419,0.001244
1882.3056,0.001109
1884.1693,0.001114
1886.0329,0.001062
1887.8966,0.000975
1889.7603,0.001169
1891.6240,0.001283
1893.4876,0.001180
1895.3513,0.001221
1897.2150,0.001098
1899.0786,0.001177
1900.9423,0.001046
1902.8060,0.000887
1904.6696,0.001302
1906.5333,0.001621
1908.3970,0.001283
1910.2606,0.001090
1912.1243,0.001629
1913.9880,0.001931
1915.8516,0.001665
1917.7153,0.001604
1919.5790,0.001410
1921.4427,0.001088
1923.3063,0.000791
1925.1700,0.001015
1927.0337,0.001321
1928.8973,0.000788
1930.7610,0.000679
1932.6247,0.001382
1934.4883,0.000941
1936.3520,0.000156
1938.2157,0.000982
1940.0793,0.002612
1941.9430,0.002861
1943.8067,0.002192
1945.6704,0.001556
1947.5340,0.001383
1949.3977,0.002225
1951.2614,0.002926
1953.1250,0.002280
1954.9887,0.001299
1956.8524,0.001663
1958.7160,0.002496
1960.5797,0.002631
1962.4434,0.002587
1964.3070,0.002307
1966.1707,0.001588
1968.0344,0.000892
1969.8980,0.001126
1971.7617,0.001975
1973.6254,0.002729
1975.4891,0.003211
1977.3527,0.004034
1979.2164,0.004704
1981.0801,0.004778
1982.9437,0.004623
1984.8074,0.003597
1986.6711,0.002098
1988.5347,0.002118
1990.3984,0.003338
1992.2621,0.004037
1994.1257,0.004089
1995.9894,0.003534
1997.8531,0.002921
1999.7167,0.003790
2001.5804,0.004265
2003.4441,0.003612
2005.3078,0.003614
2007.1714,0.003800
2009.0351,0.003758
2010.8988,0.003649
2012.7624,0.003893
2014.6261,0.004179
2016.4898,0.004072
2018.3534,0.003763
2020.2171,0.004119
2022.0808,0.005694
2023.9444,0.006224
2025.8081,0.005074
2027.6718,0.004584
2029.5355,0.005734
2031.3991,0.007068
2033.2628,0.007206
2035.1265,0.006948
2036.9901,0.006904
2038.8538,0.006962
2040.7175,0.006436
2042.5811,0.005580
2044.4448,0.006203
2046.3085,0.007331
2048.1721,0.007601
2050.0358,0.007667
2051.8995,0.006907
2053.7631,0.006072
2055.6268,0.006556
2057.4905,0.007174
2059.3542,0.006899
2061.2178,0.007186
2063.0815,0.007466
2064.9452,0.007507
2066.8088,0.007236
2068.6725,0.006598
2070.5362,0.006717
2072.3998,0.006699
2074.2635,0.006765
2076.1272,0.007209
2077.9908,0.006829
2079.8545,0.005968
2081.7182,0.005658
2083.5819,0.005924
2085.4455,0.006249
2087.3092,0.006148
2089.1729,0.005747
2091.0365,0.005469
2092.9002,0.005410
2094.7639,0.005631
2096.6275,0.005768
2098.4912,0.005892
2100.3549,0.005906
2102.2185,0.005795
2104.0822,0.005931
2105.9459,0.006105
2107.8095,0.005684
2109.6732,0.005780
2111.5369,0.006108
2113.4006,0.005957
2115.2642,0.006062
2117.1279,0.005521
2118.9916,0.004607
2120.8552,0.004823
2122.7189,0.005420
2124.5826,0.005643
2126.4462,0.005329
2128.3099,0.004754
2130.1736,0.004399
2132.0372,0.003894
2133.9009,0.004357
2135.7646,0.005856
2137.6282,0.006059
2139.4919,0.005670
2141.3556,0.005934
2143.2193,0.006058
2145.0829,0.005891
2146.9466,0.006420
2148.8103,0.006030
2150.6739,0.005504
2152.5376,0.005978
2154.4013,0.005363
2156.2649,0.005975
2158.1286,0.007516
2159.9923,0.008950
2161.8559,0.009839
2163.7196,0.009487
2165.5833,0.009694
2167.4470,0.009650
2169.3106,0.009209
2171.1743,0.008567
2173.0380,0.007962
2174.9016,0.007743
2176.7653,0.008536
2178.6290,0.008925
2180.4926,0.008027
2182.3563,0.008092
2184.2200,0.008884
2186.0836,0.007671
2187.9473,0.006905
2189.8110,0.007536
2191.6746,0.007497
2193.5383,0.007776
2195.4020,0.008842
2197.2657,0.008413
2199.1293,0.007754
2200.9930,0.008208
2202.8567,0.008076
2204.7203,0.006984
2206.5840,0.006715
2208.4477,0.007326
2210.3113,0.007203
2212.1750,0.006617
2214.0387,0.006981
2215.9023,0.007641
2217.7660,0.007743
2219.6297,0.007180
2221.4934,0.007204
2223.3570,0.008093
2225.2207,0.008136
2227.0844,0.006816
2228.9480,0.006820
2230.8117,0.007428
2232.6754,0.007041
2234.5390,0.007115
2236.4027,0.007266
2238.2664,0.006494
2240.1300,0.006346
2241.9937,0.006601
2243.8574,0.006560
2245.7210,0.006146
2247.5847,0.006415
2249.4484,0.006700
2251.3121,0.006228
2253.1757,0.005550
2255.0394,0.005743
2256.9031,0.006440
2258.7667,0.006700
2260.6304,0.007107
2262.4941,0.007148
2264.3577,0.006774
2266.2214,0.006467
2268.0851,0.006729
2269.9487,0.006819
2271.8124,0.006591
2273.6761,0.006830
2275.5397,0.006760
2277.4034,0.006616
2279.2671,0.006467
2281.1308,0.006300
2282.9944,0.006852
2284.8581,0.007330
2286.7218,0.006871
2288.5854,0.006272
2290.4491,0.006180
2292.3128,0.006055
2294.1764,0.005901
2296.0401,0.005952
2297.9038,0.005871
2299.7674,0.005664
2301.6311,0.005399
2303.4948,0.005420
2305.3585,0.005418
2307.2221,0.005419
2309.0858,0.005465
2310.9495,0.005558
2312.8131,0.005734
2314.6768,0.005786
2316.5405,0.005913
2318.4041,0.006104
2320.2678,0.006238
2322.1315,0.006490
2323.9951,0.006502
2325.8588,0.005916
2327.7225,0.005102
2329.5861,0.005048
2331.4498,0.005124
2333.3135,0.005268
2335.1772,0.005311
2337.0408,0.005450
2338.9045,0.006053
2340.7682,0.006353
2342.6318,0.006090
2344.4955,0.005892
2346.3592,0.005897
2348.2228,0.004962
2350.0865,0.003836
2351.9502,0.003847
2353.8138,0.004265
2355.6775,0.004372
2357.5412,0.004709
2359.4049,0.004691
2361.2685,0.005012
2363.1322,0.006385
2364.9959,0.006833
2366.8595,0.006618
2368.7232,0.007133
2370.5869,0.007318
2372.4505,0.006883
2374.3142,0.007102
2376.1779,0.007265
2378.0415,0.007073
2379.9052,0.006302
2381.7689,0.005564
2383.6325,0.005357
2385.4962,0.005407
2387.3599,0.005415
2389.2236,0.005310
2391.0872,0.005444
2392.9509,0.005513
2394.8146,0.005664
2396.6782,0.005981
2398.5419,0.005776
2400.4056,0.005450
2402.2692,0.005179
2404.1329,0.005205
2405.9966,0.005771
2407.8602,0.006236
2409.7239,0.006210
2411.5876,0.006076
2413.4512,0.006237
2415.3149,0.006396
2417.1786,0.006183
2419.0423,0.006060
2420.9059,0.006312
2422.7696,0.006610
2424.6333,0.006670
2426.4969,0.006503
2428.3606,0.006354
2430.2243,0.006418
2432.0879,0.006543
2433.9516,0.006680
2435.8153,0.006752
2437.6789,0.006682
2439.5426,0.006610
2441.4063,0.006881
2443.2700,0.007230
2445.1336,0.007422
2446.9973,0.007601
2448.8610,0.007446
2450.7246,0.007279
2452.5883,0.007227
2454.4520,0.007396
2456.3156,0.007445
2458.1793,0.007738
2460.0430,0.007973
2461.9066,0.007702
2463.7703,0.007310
2465.6340,0.007344
2467.4976,0.007810
2469.3613,0.007760
2471.2250,0.007573
2473.0887,0.007748
2474.9523,0.007956
2476.8160,0.007993
2478.6797,0.008013
2480.5433,0.007845
2482.4070,0.008108
2484.2707,0.008400
2486.1343,0.008264
2487.9980,0.008224
2489.8617,0.008607
2491.7253,0.008757
2493.5890,0.008796
2495.4527,0.008812
2497.3164,0.008759
2499.1800,0.008846
2501.0437,0.008857
2502.9074,0.009128
2504.7710,0.009016
2506.6347,0.008963
2508.4984,0.009112
2510.3620,0.008876
2512.2257,0.008719
2514.0894,0.009107
2515.9530,0.009750
2517.8167,0.009687
2519.6804,0.009603
2521.5440,0.009584
2523.4077,0.009539
2525.2714,0.009673
2527.1351,0.009849
2528.9987,0.009772
2530.8624,0.009583
2532.7261,0.009741
2534.5897,0.010159
2536.4534,0.010090
2538.3171,0.009805
2540.1807,0.009723
2542.0444,0.010060
2543.9081,0.010259
2545.7717,0.010201
2547.6354,0.010156
2549.4991,0.010052
2551.3627,0.010119
2553.2264,0.010262
2555.0901,0.010497
2556.9538,0.010896
2558.8174,0.011093
2560.6811,0.011237
2562.5448,0.011382
2564.4084,0.011237
2566.2721,0.011124
2568.1358,0.011444
2569.9994,0.011597
2571.8631,0.011452
2573.7268,0.011666
2575.5904,0.011814
2577.4541,0.011709
2579.3178,0.011589
2581.1815,0.012031
2583.0451,0.012458
2584.9088,0.012294
2586.7725,0.012386
2588.6361,0.012545
2590.4998,0.012546
2592.3635,0.012668
2594.2271,0.012869
2596.0908,0.012965
2597.9545,0.012792
2599.8181,0.012863
2601.6818,0.013229
2603.5455,0.013407
2605.4091,0.013657
2607.2728,0.013966
2609.1365,0.014217
2611.0002,0.014258
2612.8638,0.014271
2614.7275,0.014358
2616.5912,0.014271
2618.4548,0.014477
2620.3185,0.014653
2622.1822,0.014654
2624.0458,0.015027
2625.9095,0.015291
2627.7732,0.015358
2629.6368,0.015446
2631.5005,0.015585
2633.3642,0.015948
2635.2279,0.016181
2637.0915,0.016132
2638.9552,0.016045
2640.8189,0.016110
2642.6825,0.016438
2644.5462,0.016747
2646.4099,0.016805
2648.2735,0.016857
2650.1372,0.017030
2652.0009,0.017109
2653.8645,0.017242
2655.7282,0.017218
2657.5919,0.017186
2659.4555,0.017255
2661.3192,0.017344
2663.1829,0.017517
2665.0466,0.017602
2666.9102,0.017560
2668.7739,0.017716
2670.6376,0.018054
2672.5012,0.018210
2674.3649,0.018161
2676.2286,0.018094
2678.0922,0.018187
2679.9559,0.018498
2681.8196,0.018580
2683.6832,0.018542
2685.5469,0.018599
2687.4106,0.018656
2689.2742,0.018743
2691.1379,0.018935
2693.0016,0.019209
2694.8653,0.019328
2696.7289,0.019289
2698.5926,0.019404
2700.4563,0.019434
2702.3199,0.019375
2704.1836,0.019444
2706.0473,0.019789
2707.9109,0.020005
2709.7746,0.020140
2711.6383,0.020275
2713.5019,0.020559
2715.3656,0.020852
2717.2293,0.020949
2719.0930,0.021100
2720.9566,0.021373
2722.8203,0.021760
2724.6840,0.022061
2726.5476,0.022073
2728.4113,0.022075
2730.2750,0.022178
2732.1386,0.022520
2734.0023,0.022798
2735.8660,0.022933
2737.7296,0.023076
2739.5933,0.023164
2741.4570,0.023310
2743.3206,0.023751
2745.1843,0.024020
2747.0480,0.024073
2748.9117,0.024164
2750.7753,0.024470
2752.6390,0.024806
2754.5027,0.024980
2756.3663,0.025023
2758.2300,0.025347
2760.0937,0.025619
2761.9573,0.025810
2763.8210,0.026035
2765.6847,0.026466
2767.5483,0.026755
2769.4120,0.026889
2771.2757,0.027125
2773.1394,0.027618
2775.0030,0.028005
2776.8667,0.028146
2778.7304,0.028365
2780.5940,0.028851
2782.4577,0.029389
2784.3214,0.029866
2786.1850,0.030167
2788.0487,0.030689
2789.9124,0.031136
2791.7760,0.031534
2793.6397,0.031985
2795.5034,0.032576
2797.3670,0.032905
2799.2307,0.033282
2801.0944,0.033902
2802.9581,0.034511
2804.8217,0.035167
2806.6854,0.035835
2808.5491,0.036588
2810.4127,0.037528
2812.2764,0.038378
2814.1401,0.039302
2816.0037,0.040198
2817.8674,0.041268
2819.7311,0.042320
2821.5947,0.043644
2823.4584,0.045050
2825.3221,0.046753
2827.1857,0.048892
2829.0494,0.051189
2830.9131,0.053502
2832.7768,0.056299
2834.6404,0.059560
2836.5041,0.063699
2838.3678,0.068752
2840.2314,0.075327
2842.0951,0.083787
2843.9588,0.094040
2845.8224,0.105258
2847.6861,0.116689
2849.5498,0.126074
2851.4134,0.131881
2853.2771,0.132673
2855.1408,0.128356
2857.0045,0.120466
2858.8681,0.111405
2860.7318,0.102650
2862.5955,0.095645
2864.4591,0.090598
2866.3228,0.087490
2868.1865,0.086163
2870.0501,0.085634
2871.9138,0.084577
2873.7775,0.082833
2875.6411,0.080920
2877.5048,0.079624
2879.3685,0.079110
2881.2321,0.079362
2883.0958,0.080480
2884.9595,0.082523
2886.8232,0.084821
2888.6868,0.087499
2890.5505,0.090417
2892.4142,0.094069
2894.2778,0.097871
2896.1415,0.101674
2898.0052,0.105395
2899.8688,0.109391
2901.7325,0.113699
2903.5962,0.118599
2905.4598,0.124086
2907.3235,0.130322
2909.1872,0.137198
2911.0509,0.144917
2912.9145,0.153059
2914.7782,0.161813
2916.6419,0.170171
2918.5055,0.177181
2920.3692,0.181653
2922.2329,0.183114
2924.0965,0.180944
2925.9602,0.176174
2927.8239,0.169365
2929.6875,0.161339
2931.5512,0.152304
2933.4149,0.143218
2935.2785,0.134176
2937.1422,0.125680
2939.0059,0.117826
2940.8696,0.111096
2942.7332,0.105921
2944.5969,0.102343
2946.4606,0.099624
2948.3242,0.098033
2950.1879,0.097447
2952.0516,0.097452
2953.9152,0.096945
2955.7789,0.095923
2957.6426,0.094134
2959.5062,0.091567
2961.3699,0.088107
2963.2336,0.083856
2965.0972,0.079594
2966.9609,0.075558
2968.8246,0.071500
2970.6883,0.068157
2972.5519,0.064989
2974.4156,0.062039
2976.2793,0.059596
2978.1429,0.057526
2980.0066,0.055621
2981.8703,0.053827
2983.7339,0.052442
2985.5976,0.051700
2987.4613,0.051140
2989.3249,0.050454
2991.1886,0.049931
2993.0523,0.050009
2994.9160,0.050599
2996.7796,0.051735
2998.6433,0.052884
3000.5070,0.054181
3002.3706,0.055588
3004.2343,0.056839
3006.0980,0.057883
3007.9616,0.058599
3009.8253,0.058367
3011.6890,0.057324
3013.5526,0.055765
3015.4163,0.054097
3017.2800,0.052636
3019.1436,0.051426
3021.0073,0.050386
3022.8710,0.049774
3024.7347,0.049370
3026.5983,0.049116
3028.4620,0.048960
3030.3257,0.049191
3032.1893,0.049841
3034.0530,0.050139
3035.9167,0.050101
3037.7803,0.050194
3039.6440,0.050539
3041.5077,0.051105
3043.3713,0.051394
3045.2350,0.051789
3047.0987,0.052298
3048.9624,0.052726
3050.8260,0.052932
3052.6897,0.053339
3054.5534,0.053806
3056.4170,0.054178
3058.2807,0.054370
3060.1444,0.054796
3062.0080,0.055226
3063.8717,0.055301
3065.7354,0.055586
3067.5990,0.055852
3069.4627,0.055521
3071.3264,0.055495
3073.1900,0.055903
3075.0537,0.056204
3076.9174,0.056206
3078.7811,0.056428
3080.6447,0.056669
3082.5084,0.056687
3084.3721,0.056520
3086.2357,0.056195
3088.0994,0.056084
3089.9631,0.056087
3091.8267,0.055785
3093.6904,0.055837
3095.5541,0.055888
3097.4177,0.055946
3099.2814,0.056144
3101.1451,0.056257
3103.0087,0.056369
3104.8724,0.056878
3106.7361,0.056971
3108.5998,0.056952
3110.4634,0.057244
3112.3271,0.057714
3114.1908,0.057872
3116.0544,0.057977
3117.9181,0.057921
3119.7818,0.057956
3121.6454,0.058332
3123.5091,0.058674
3125.3728,0.058863
3127.2364,0.059551
3129.1001,0.060104
3130.9638,0.060344
3132.8275,0.060809
3134.6911,0.061664
3136.5548,0.062539
3138.4185,0.063071
3140.2821,0.063333
3142.1458,0.063530
3144.0095,0.063565
3145.8731,0.064268
3147.7368,0.065500
3149.6005,0.066459
3151.4641,0.066719
3153.3278,0.066810
3155.1915,0.067024
3157.0551,0.067680
3158.9188,0.068588
3160.7825,0.069372
3162.6462,0.069930
3164.5098,0.070319
3166.3735,0.070640
3168.2372,0.071344
3170.1008,0.072189
3171.9645,0.072964
3173.8282,0.073544
3175.6918,0.074246
3177.5555,0.074858
3179.4192,0.075396
3181.2828,0.075940
3183.1465,0.076506
3185.0102,0.076894
3186.8739,0.077161
3188.7375,0.077397
3190.6012,0.078092
3192.4649,0.078561
3194.3285,0.079115
3196.1922,0.079720
3198.0559,0.079863
3199.9195,0.080049
3201.7832,0.080380
3203.6469,0.080880
3205.5105,0.081652
3207.3742,0.082114
3209.2379,0.082353
3211.1015,0.082359
3212.9652,0.082431
3214.8289,0.082811
3216.6926,0.083152
3218.5562,0.083465
3220.4199,0.084273
3222.2836,0.084638
3224.1472,0.084164
3226.0109,0.083758
3227.8746,0.084392
3229.7382,0.085378
3231.6019,0.085861
3233.4656,0.086195
3235.3292,0.086758
3237.1929,0.086972
3239.0566,0.087326
3240.9202,0.087957
3242.7839,0.088383
3244.6476,0.088648
3246.5113,0.089089
3248.3749,0.089473
3250.2386,0.089905
3252.1023,0.090321
3253.9659,0.090420
3255.8296,0.090551
3257.6933,0.091298
3259.5569,0.091918
3261.4206,0.092082
3263.2843,0.092267
3265.1479,0.092732
3267.0116,0.093150
3268.8753,0.093403
3270.7390,0.093162
3272.6026,0.092686
3274.4663,0.092404
3276.3300,0.092484
3278.1936,0.092653
3280.0573,0.092386
3281.9210,0.091816
3283.7846,0.091643
3285.6483,0.091428
3287.5120,0.091179
3289.3756,0.090870
3291.2393,0.090410
3293.1030,0.090170
3294.9666,0.090008
3296.8303,0.089215
3298.6940,0.088399
3300.5577,0.088248
3302.4213,0.088178
3304.2850,0.087376
3306.1487,0.086216
3308.0123,0.085534
3309.8760,0.085143
3311.7397,0.084479
3313.6033,0.083680
3315.4670,0.083421
3317.3307,0.083457
3319.1943,0.082757
3321.0580,0.081801
3322.9217,0.081441
3324.7854,0.081284
3326.6490,0.080539
3328.5127,0.079818
3330.3764,0.079633
3332.2400,0.079155
3334.1037,0.078342
3335.9674,0.078495
3337.8310,0.078903
3339.6947,0.078232
3341.5584,0.077356
3343.4220,0.077091
3345.2857,0.076821
3347.1494,0.076253
3349.0130,0.075995
3350.8767,0.075992
3352.7404,0.075779
3354.6041,0.075219
3356.4677,0.074900
3358.3314,0.074685
3360.1951,0.073873
3362.0587,0.073433
3363.9224,0.073438
3365.7861,0.072674
3367.6497,0.071991
3369.5134,0.072149
3371.3771,0.072031
3373.2407,0.071579
3375.1044,0.071300
3376.9681,0.070850
3378.8317,0.070062
3380.6954,0.069438
3382.5591,0.069582
3384.4228,0.070027
3386.2864,0.069524
3388.1501,0.068109
3390.0138,0.067568
3391.8774,0.068039
3393.7411,0.067868
3395.6048,0.067144
3397.4684,0.067204
3399.3321,0.067000
3401.1958,0.066202
3403.0594,0.065941
3404.9231,0.066094
3406.7868,0.065863
3408.6505,0.065472
3410.5141,0.064755
3412.3778,0.063626
3414.2415,0.063220
3416.1051,0.063247
3417.9688,0.062859
3419.8325,0.062548
3421.6961,0.062291
3423.5598,0.062056
3425.4235,0.061730
3427.2871,0.061363
3429.1508,0.061025
3431.0145,0.060258
3432.8781,0.059164
3434.7418,0.058878
3436.6055,0.058753
3438.4692,0.058487
3440.3328,0.058181
3442.1965,0.057559
3444.0602,0.057046
3445.9238,0.056682
3447.7875,0.055871
3449.6512,0.056083
3451.5148,0.056423
3453.3785,0.055304
3455.2422,0.054295
3457.1058,0.053877
3458.9695,0.053143
3460.8332,0.052904
3462.6969,0.052624
3464.5605,0.051991
3466.4242,0.051770
3468.2879,0.051301
3470.1515,0.050307
3472.0152,0.049342
3473.8789,0.048993
3475.7425,0.048778
3477.6062,0.048085
3479.4699,0.047908
3481.3335,0.047532
3483.1972,0.046891
3485.0609,0.046165
3486.9245,0.045439
3488.7882,0.045190
3490.6519,0.044862
3492.5156,0.043930
3494.3792,0.043581
3496.2429,0.043558
3498.1066,0.042710
3499.9702,0.041495
3501.8339,0.040921
3503.6976,0.041315
3505.5612,0.041177
3507.4249,0.040105
3509.2886,0.039567
3511.1522,0.038854
3513.0159,0.037739
3514.8796,0.037114
3516.7432,0.036977
3518.6069,0.037101
3520.4706,0.037021
3522.3343,0.036328
3524.1979,0.035235
3526.0616,0.034700
3527.9253,0.034772
3529.7889,0.034282
3531.6526,0.033324
3533.5163,0.032592
3535.3799,0.032078
3537.2436,0.031744
3539.1073,0.031015
3540.9709,0.029399
3542.8346,0.028591
3544.6983,0.028873
3546.5620,0.028564
3548.4256,0.027644
3550.2893,0.027054
3552.1530,0.026190
3554.0166,0.025278
3555.8803,0.025058
3557.7440,0.024959
3559.6076,0.024325
3561.4713,0.023301
3563.3350,0.022882
3565.1986,0.022276
3567.0623,0.021296
3568.9260,0.020710
3570.7896,0.020239
3572.6533,0.019471
3574.5170,0.019035
3576.3807,0.018859
3578.2443,0.017853
3580.1080,0.017174
3581.9717,0.017262
3583.8353,0.016758
3585.6990,0.015665
3587.5627,0.015250
3589.4263,0.014858
3591.2900,0.013853
3593.1537,0.013260
3595.0173,0.012725
3596.8810,0.012243
3598.7447,0.011531
3600.6084,0.011050
3602.4720,0.010743
3604.3357,0.010213
3606.1994,0.009505
3608.0630,0.008801
3609.9267,0.008313
3611.7904,0.007809
3613.6540,0.007149
3615.5177,0.006505
3617.3814,0.006162
3619.2450,0.005865
3621.1087,0.005636
3622.9724,0.005250
3624.8360,0.004811
3626.6997,0.003984
3628.5634,0.003299
3630.4271,0.003803
3632.2907,0.003568
3634.1544,0.002299
3636.0181,0.001787
3637.8817,0.001864
3639.7454,0.001580
3641.6091,0.001179
3643.4727,0.000928
3645.3364,0.000351
3647.2001,-0.000822
3649.0637,-0.001547
3650.9274,-0.001938
3652.7911,-0.001857
3654.6547,-0.001872
3656.5184,-0.002599
3658.3821,-0.002493
3660.2458,-0.002218
3662.1094,-0.002698
3663.9731,-0.003175
3665.8368,-0.003547
3667.7004,-0.004018
3669.5641,-0.004675
3671.4278,-0.004985
3673.2914,-0.005193
3675.1551,-0.006107
3677.0188,-0.006082
3678.8824,-0.005302
3680.7461,-0.005509
3682.6098,-0.005901
3684.4735,-0.006026
3686.3371,-0.006229
3688.2008,-0.006532
3690.0645,-0.006838
3691.9281,-0.006915
3693.7918,-0.006998
3695.6555,-0.007004
3697.5191,-0.006904
3699.3828,-0.006911
3701.2465,-0.007185
3703.1101,-0.007253
3704.9738,-0.006824
3706.8375,-0.006759
3708.7011,-0.006990
3710.5648,-0.007376
3712.4285,-0.007637
3714.2922,-0.007478
3716.1558,-0.007291
3718.0195,-0.007438
3719.8832,-0.007285
3721.7468,-0.007258
3723.6105,-0.007101
3725.4742,-0.006967
3727.3378,-0.007212
3729.2015,-0.007352
3731.0652,-0.007429
3732.9288,-0.007729
3734.7925,-0.008198
3736.6562,-0.008417
3738.5199,-0.007630
3740.3835,-0.007034
3742.2472,-0.007352
3744.1109,-0.008238
3745.9745,-0.007708
3747.8382,-0.007000
3749.7019,-0.008163
3751.5655,-0.008390
3753.4292,-0.007577
3755.2929,-0.007420
3757.1565,-0.007743
3759.0202,-0.008135
3760.8839,-0.007687
3762.7475,-0.006943
3764.6112,-0.006817
3766.4749,-0.007153
3768.3386,-0.007120
3770.2022,-0.007456
3772.0659,-0.007304
3773.9296,-0.007138
3775.7932,-0.007171
3777.6569,-0.007420
3779.5206,-0.007538
3781.3842,-0.007256
3783.2479,-0.007191
3785.1116,-0.007342
3786.9752,-0.007150
3788.8389,-0.007269
3790.7026,-0.007591
3792.5662,-0.007558
3794.4299,-0.007465
3796.2936,-0.007563
3798.1573,-0.007455
3800.0209,-0.007764
3801.8846,-0.008347
3803.7483,-0.007622
3805.6119,-0.007203
3807.4756,-0.007523
3809.3393,-0.007125
3811.2029,-0.007023
3813.0666,-0.007117
3814.9303,-0.007239
3816.7939,-0.007379
3818.6576,-0.007252
3820.5213,-0.007544
3822.3850,-0.007766
3824.2486,-0.007309
3826.1123,-0.007444
3827.9760,-0.007684
3829.8396,-0.007307
3831.7033,-0.007407
3833.5670,-0.007973
3835.4306,-0.007896
3837.2943,-0.007807
3839.1580,-0.007735
3841.0216,-0.007525
3842.8853,-0.007369
3844.7490,-0.007367
3846.6126,-0.007272
3848.4763,-0.007242
3850.3400,-0.007465
3852.2037,-0.007744
3854.0673,-0.007689
3855.9310,-0.007288
3857.7947,-0.007200
3859.6583,-0.007323
3861.5220,-0.007466
3863.3857,-0.007507
3865.2493,-0.007077
3867.1130,-0.007148
3868.9767,-0.007788
3870.8403,-0.007857
3872.7040,-0.006919
3874.5677,-0.007176
3876.4314,-0.007056
3878.2950,-0.006941
3880.1587,-0.007550
3882.0224,-0.007139
3883.8860,-0.006069
3885.7497,-0.006757
3887.6134,-0.007512
3889.4770,-0.007367
3891.3407,-0.007542
3893.2044,-0.007365
3895.0680,-0.006761
3896.9317,-0.006448
3898.7954,-0.006672
3900.6590,-0.007177
3902.5227,-0.006938
3904.3864,-0.007149
3906.2501,-0.006895
3908.1137,-0.006435
3909.9774,-0.006321
3911.8411,-0.006357
3913.7047,-0.006704
3915.5684,-0.006999
3917.4321,-0.007191
3919.2957,-0.006898
3921.1594,-0.006777
3923.0231,-0.007106
3924.8867,-0.006965
3926.7504,-0.006783
3928.6141,-0.006634
3930.4777,-0.006477
3932.3414,-0.006411
3934.2051,-0.006438
3936.0688,-0.006438
3937.9324,-0.006672
3939.7961,-0.006460
3941.6598,-0.006415
3943.5234,-0.006632
3945.3871,-0.006666
3947.2508,-0.006430
3949.1144,-0.006291
3950.9781,-0.006392
3952.8418,-0.006772
3954.7054,-0.006249
3956.5691,-0.005952
3958.4328,-0.006485
3960.2965,-0.006703
3962.1601,-0.006484
3964.0238,-0.006521
3965.8875,-0.006484
3967.7511,-0.006512
3969.6148,-0.006724
3971.4785,-0.006354
3973.3421,-0.006060
3975.2058,-0.006270
3977.0695,-0.006496
3978.9331,-0.006625
3980.7968,-0.006596
3982.6605,-0.006603
3984.5241,-0.006295
3986.3878,-0.006238
3988.2515,-0.006545
3990.1152,-0.006557
3991.9788,-0.006307
3993.8425,-0.006305
3995.7062,-0.005970
3997.5698,-0.006115
3999.4335,-0.006626
