Wavenumber,Intensity
650.4205,0.078539
652.2841,0.078177
654.1478,0.076846
656.0115,0.074990
657.8751,0.075571
659.7388,0.076707
661.6025,0.076362
663.4661,0.072459
665.3298,0.070410
667.1935,0.071477
669.0571,0.073987
670.9208,0.072984
672.7845,0.072356
674.6481,0.071333
676.5118,0.070547
678.3755,0.071079
680.2392,0.071274
682.1028,0.070590
683.9665,0.070253
685.8302,0.069642
687.6938,0.068670
689.5575,0.067950
691.4212,0.067811
693.2848,0.068221
695.1485,0.067806
697.0122,0.066650
698.8758,0.068037
700.7395,0.067936
702.6032,0.066595
704.4669,0.065189
706.3305,0.064008
708.1942,0.063585
710.0579,0.062956
711.9215,0.062347
713.7852,0.061965
715.6489,0.061329
717.5125,0.060630
719.3762,0.060038
721.2399,0.060406
723.1035,0.060155
724.9672,0.058814
726.8309,0.057917
728.6945,0.057612
730.5582,0.056683
732.4219,0.056146
734.2856,0.056437
736.1492,0.056562
738.0129,0.056423
739.8766,0.056321
741.7402,0.055991
743.6039,0.055685
745.4676,0.055274
747.3312,0.055361
749.1949,0.054785
751.0586,0.053909
752.9222,0.053671
754.7859,0.053847
756.6496,0.053558
758.5132,0.053341
760.3769,0.053173
762.2406,0.052870
764.1043,0.052841
765.9679,0.052728
767.8316,0.052558
769.6953,0.052478
771.5589,0.052052
773.4226,0.051603
775.2863,0.051212
777.1499,0.051128
779.0136,0.051316
780.8773,0.051132
782.7409,0.050658
784.6046,0.050196
786.4683,0.049842
788.3320,0.049533
790.1956,0.048871
792.0593,0.048248
793.9230,0.047887
795.7866,0.047827
797.6503,0.047440
799.5140,0.047153
801.3776,0.047258
803.2413,0.047309
805.1050,0.047125
806.9686,0.047043
808.8323,0.047357
810.6960,0.047582
812.5596,0.047655
814.4233,0.047742
816.2870,0.047698
818.1507,0.047467
820.0143,0.047084
821.8780,0.046332
823.7417,0.045958
825.6053,0.045596
827.4690,0.045226
829.3327,0.044829
831.1963,0.044257
833.0600,0.043778
834.9237,0.043501
836.7873,0.043508
838.6510,0.043333
840.5147,0.043204
842.3784,0.043000
844.2420,0.042634
846.1057,0.042650
847.9694,0.042658
849.8330,0.042774
851.6967,0.042920
853.5604,0.042909
855.4240,0.043114
857.2877,0.043388
859.1514,0.043668
861.0150,0.043955
862.8787,0.044533
864.7424,0.044954
866.6060,0.045118
868.4697,0.045375
870.3334,0.045624
872.1971,0.045849
874.0607,0.045914
875.9244,0.045845
877.7881,0.045691
879.6517,0.045398
881.5154,0.045158
883.3791,0.044869
885.2427,0.044915
887.1064,0.044832
888.9701,0.044585
890.8337,0.044480
892.6974,0.044488
894.5611,0.044569
896.4247,0.044519
898.2884,0.044250
900.1521,0.044083
902.0158,0.043915
903.8794,0.043855
905.7431,0.043961
907.6068,0.043966
909.4704,0.044090
911.3341,0.044515
913.1978,0.045077
915.0614,0.045411
916.9251,0.045723
918.7888,0.046267
920.6524,0.046644
922.5161,0.046924
924.3798,0.047326
926.2435,0.047483
928.1071,0.047575
929.9708,0.047756
931.8345,0.047750
933.6981,0.047821
935.5618,0.048064
937.4255,0.048471
939.2891,0.049029
941.1528,0.049629
943.0165,0.050085
944.8801,0.050364
946.7438,0.050559
948.6075,0.050652
950.4711,0.050719
952.3348,0.050662
954.1985,0.050707
956.0622,0.051073
957.9258,0.051627
959.7895,0.052599
961.6532,0.053963
963.5168,0.055235
965.3805,0.056313
967.2442,0.057082
969.1078,0.057603
970.9715,0.057926
972.8352,0.058008
974.6988,0.058361
976.5625,0.059076
978.4262,0.059927
980.2899,0.060952
982.1535,0.062105
984.0172,0.063082
985.8809,0.064007
987.7445,0.065021
989.6082,0.066033
991.4719,0.067072
993.3355,0.068024
995.1992,0.069022
997.0629,0.070076
998.9265,0.071017
1000.7902,0.071937
1002.6539,0.072801
1004.5175,0.073738
1006.3812,0.075060
1008.2449,0.076749
1010.1086,0.078596
1011.9722,0.080566
1013.8359,0.082513
1015.6996,0.084605
1017.5632,0.086429
1019.4269,0.087855
1021.2906,0.088991
1023.1542,0.089810
1025.0179,0.090605
1026.8816,0.091630
1028.7452,0.092578
1030.6089,0.093357
1032.4726,0.093939
1034.3362,0.094337
1036.1999,0.094389
1038.0636,0.094228
1039.9273,0.093982
1041.7909,0.093612
1043.6546,0.093179
1045.5183,0.092932
1047.3819,0.092846
1049.2456,0.092894
1051.1093,0.092912
1052.9729,0.092961
1054.8366,0.093155
1056.7003,0.093432
1058.5639,0.093714
1060.4276,0.093940
1062.2913,0.094144
1064.1550,0.094327
1066.0186,0.094504
1067.8823,0.094657
1069.7460,0.094624
1071.6096,0.094305
1073.4733,0.093762
1075.3370,0.092982
1077.2006,0.091687
1079.0643,0.089933
1080.9280,0.087827
1082.7916,0.085549
1084.6553,0.083152
1086.5190,0.080773
1088.3826,0.078562
1090.2463,0.076739
1092.1100,0.075187
1093.9737,0.073847
1095.8373,0.072643
1097.7010,0.071555
1099.5647,0.070552
1101.4283,0.069678
1103.2920,0.068974
1105.1557,0.068512
1107.0193,0.068157
1108.8830,0.067821
1110.7467,0.067394
1112.6103,0.067071
1114.4740,0.066721
1116.3377,0.066157
1118.2014,0.065491
1120.0650,0.064757
1121.9287,0.064014
1123.7924,0.063347
1125.6560,0.062512
1127.5197,0.061663
1129.3834,0.060852
1131.2470,0.059935
1133.1107,0.059012
1134.9744,0.058081
1136.8380,0.057094
1138.7017,0.056315
1140.5654,0.055623
1142.4290,0.054918
1144.2927,0.054422
1146.1564,0.054227
1148.0201,0.054055
1149.8837,0.053842
1151.7474,0.053641
1153.6111,0.053393
1155.4747,0.053036
1157.3384,0.052570
1159.2021,0.051959
1161.0657,0.051395
1162.9294,0.050719
1164.7931,0.049815
1166.6567,0.048761
1168.5204,0.047545
1170.3841,0.046126
1172.2477,0.044556
1174.1114,0.042974
1175.9751,0.041445
1177.8388,0.040046
1179.7024,0.038910
1181.5661,0.038038
1183.4298,0.037499
1185.2934,0.037154
1187.1571,0.036935
1189.0208,0.036894
1190.8844,0.036964
1192.7481,0.037202
1194.6118,0.037564
1196.4754,0.037934
1198.3391,0.038391
1200.2028,0.038935
1202.0665,0.039512
1203.9301,0.040061
1205.7938,0.040597
1207.6575,0.041077
1209.5211,0.041458
1211.3848,0.041849
1213.2485,0.042298
1215.1121,0.042825
1216.9758,0.043405
1218.8395,0.044009
1220.7031,0.044529
1222.5668,0.045004
1224.4305,0.045530
1226.2941,0.046088
1228.1578,0.046592
1230.0215,0.046911
1231.8852,0.047104
1233.7488,0.047219
1235.6125,0.047346
1237.4762,0.047378
1239.3398,0.047286
1241.2035,0.047135
1243.0672,0.046882
1244.9308,0.046668
1246.7945,0.046458
1248.6582,0.046118
1250.5218,0.045701
1252.3855,0.045368
1254.2492,0.045022
1256.1129,0.044596
1257.9765,0.044301
1259.8402,0.044141
1261.7039,0.043901
1263.5675,0.043480
1265.4312,0.043113
1267.2949,0.042870
1269.1585,0.042710
1271.0222,0.042498
1272.8859,0.042233
1274.7495,0.042002
1276.6132,0.041794
1278.4769,0.041637
1280.3405,0.041571
1282.2042,0.041489
1284.0679,0.041286
1285.9316,0.041110
1287.7952,0.041107
1289.6589,0.041029
1291.5226,0.041045
1293.3862,0.041235
1295.2499,0.041322
1297.1136,0.041415
1298.9772,0.041682
1300.8409,0.041929
1302.7046,0.042127
1304.5682,0.042402
1306.4319,0.042647
1308.2956,0.042819
1310.1592,0.042985
1312.0229,0.043165
1313.8866,0.043238
1315.7503,0.043170
1317.6139,0.043185
1319.4776,0.043129
1321.3413,0.042799
1323.2049,0.042481
1325.0686,0.042308
1326.9323,0.042108
1328.7959,0.041915
1330.6596,0.041764
1332.5233,0.041724
1334.3869,0.041793
1336.2506,0.041927
1338.1143,0.042342
1339.9780,0.042849
1341.8416,0.042898
1343.7053,0.042751
1345.5690,0.042680
1347.4326,0.042678
1349.2963,0.042772
1351.1600,0.042947
1353.0236,0.043081
1354.8873,0.043276
1356.7510,0.043539
1358.6146,0.043827
1360.4783,0.044420
1362.3420,0.045796
1364.2056,0.047051
1366.0693,0.047634
1367.9330,0.048581
1369.7967,0.049525
1371.6603,0.050145
1373.5240,0.051374
1375.3877,0.052584
1377.2513,0.052853
1379.1150,0.053202
1380.9787,0.053541
1382.8423,0.053706
1384.7060,0.054123
1386.5697,0.055208
1388.4333,0.056348
1390.2970,0.056504
1392.1607,0.056720
1394.0244,0.057885
1395.8880,0.059493
1397.7517,0.060377
1399.6154,0.061268
1401.4790,0.061189
1403.3427,0.060825
1405.2064,0.060767
1407.0700,0.060133
1408.9337,0.059078
1410.7974,0.057982
1412.6610,0.056444
1414.5247,0.054712
1416.3884,0.053201
1418.2520,0.052769
1420.1157,0.052398
1421.9794,0.051013
1423.8431,0.050269
1425.7067,0.049720
1427.5704,0.049114
1429.4341,0.049117
1431.2977,0.049120
1433.1614,0.048883
1435.0251,0.049222
1436.8887,0.050632
1438.7524,0.050909
1440.6161,0.050448
1442.4797,0.050422
1444.3434,0.050434
1446.2071,0.050479
1448.0707,0.050780
1449.9344,0.050494
1451.7981,0.049588
1453.6618,0.048652
1455.5254,0.048473
1457.3891,0.049491
1459.2528,0.048528
1461.1164,0.046890
1462.9801,0.045901
1464.8438,0.045614
1466.7074,0.044765
1468.5711,0.043242
1470.4348,0.041920
1472.2984,0.041381
1474.1621,0.040792
1476.0258,0.039976
1477.8895,0.039191
1479.7531,0.038500
1481.6168,0.038211
1483.4805,0.037978
1485.3441,0.037915
1487.2078,0.038691
1489.0715,0.040115
1490.9351,0.041246
1492.7988,0.041349
1494.6625,0.042104
1496.5261,0.044354
1498.3898,0.046315
1500.2535,0.047030
1502.1171,0.047305
1503.9808,0.047869
1505.8445,0.051188
1507.7082,0.057470
1509.5718,0.058073
1511.4355,0.058109
1513.2992,0.059352
1515.1628,0.060520
1517.0265,0.062182
1518.8902,0.063000
1520.7538,0.064500
1522.6175,0.067030
1524.4812,0.067589
1526.3448,0.068597
1528.2085,0.069300
1530.0722,0.069349
1531.9359,0.069826
1533.7995,0.071573
1535.6632,0.071369
1537.5269,0.070428
1539.3905,0.072408
1541.2542,0.075153
1543.1179,0.074252
1544.9815,0.073422
1546.8452,0.072005
1548.7089,0.070629
1550.5725,0.069675
1552.4362,0.068112
1554.2999,0.066501
1556.1635,0.065024
1558.0272,0.064917
1559.8909,0.065563
1561.7546,0.062633
1563.6182,0.060304
1565.4819,0.058794
1567.3456,0.057343
1569.2092,0.056302
1571.0729,0.055182
1572.9366,0.053453
1574.8002,0.052539
1576.6639,0.052592
1578.5276,0.051676
1580.3912,0.050787
1582.2549,0.050629
1584.1186,0.050578
1585.9822,0.050541
1587.8459,0.050871
1589.7096,0.051555
1591.5733,0.052238
1593.4369,0.053102
1595.3006,0.054011
1597.1643,0.054805
1599.0279,0.055756
1600.8916,0.057207
1602.7553,0.058570
1604.6189,0.059795
1606.4826,0.061487
1608.3463,0.063592
1610.2099,0.065505
1612.0736,0.067075
1613.9373,0.068722
1615.8010,0.071590
1617.6646,0.075287
1619.5283,0.076440
1621.3920,0.077365
1623.2556,0.080091
1625.1193,0.082434
1626.9830,0.083690
1628.8466,0.084964
1630.7103,0.085159
1632.5740,0.084978
1634.4376,0.085794
1636.3013,0.087539
1638.1650,0.086706
1640.0286,0.084748
1641.8923,0.083103
1643.7560,0.081477
1645.6197,0.080601
1647.4833,0.080178
1649.3470,0.077970
1651.2107,0.075671
1653.0743,0.076096
1654.9380,0.075360
1656.8017,0.072386
1658.6653,0.069881
1660.5290,0.067836
1662.3927,0.066032
1664.2563,0.063553
1666.1200,0.060741
1667.9837,0.058453
1669.8474,0.056242
1671.7110,0.053927
1673.5747,0.051593
1675.4384,0.049152
1677.3020,0.046199
1679.1657,0.043665
1681.0294,0.041116
1682.8930,0.038448
1684.7567,0.035817
1686.6204,0.033699
1688.4840,0.031603
1690.3477,0.029321
1692.2114,0.027116
1694.0750,0.024808
1695.9387,0.022029
1697.8024,0.019676
1699.6661,0.017367
1701.5297,0.015407
1703.3934,0.014715
1705.2571,0.013605
1707.1207,0.012531
1708.9844,0.012007
1710.8481,0.011404
1712.7117,0.010963
1714.5754,0.010440
1716.4391,0.009522
1718.3027,0.008370
1720.1664,0.008395
1722.0301,0.008568
1723.8937,0.008271
1725.7574,0.007972
1727.6211,0.007863
1729.4848,0.007580
1731.3484,0.007170
1733.2121,0.006299
1735.0758,0.005818
1736.9394,0.006288
1738.8031,0.006077
1740.6668,0.005594
1742.5304,0.005590
1744.3941,0.005597
1746.2578,0.005577
1748.1214,0.005287
1749.9851,0.004641
1751.8488,0.004096
1753.7125,0.004415
1755.5761,0.004536
1757.4398,0.004191
1759.3035,0.004118
1761.1671,0.003953
1763.0308,0.003815
1764.8945,0.004112
1766.7581,0.004078
1768.6218,0.004013
1770.4855,0.004014
1772.3491,0.003638
1774.2128,0.003455
1776.0765,0.003575
1777.9401,0.003688
1779.8038,0.003762
1781.6675,0.003720
1783.5312,0.003663
1785.3948,0.003519
1787.2585,0.003668
1789.1222,0.003943
1790.9858,0.003774
1792.8495,0.003090
1794.7132,0.003059
1796.5768,0.003343
1798.4405,0.003454
1800.3042,0.003402
1802.1678,0.003341
1804.0315,0.003338
1805.8952,0.003268
1807.7589,0.003265
1809.6225,0.003488
1811.4862,0.003252
1813.3499,0.003061
1815.2135,0.003211
1817.0772,0.003314
1818.9409,0.003350
1820.8045,0.003554
1822.6682,0.003524
1824.5319,0.003095
1826.3955,0.003026
1828.2592,0.003479
1830.1229,0.003390
1831.9865,0.003144
1833.8502,0.003086
1835.7139,0.003143
1837.5776,0.003313
1839.4412,0.003285
1841.3049,0.003040
1843.1686,0.002698
1845.0322,0.002696
1846.8959,0.003243
1848.7596,0.003457
1850.6232,0.003299
1852.4869,0.003062
1854.3506,0.002952
1856.2142,0.003038
1858.0779,0.003079
1859.9416,0.002937
1861.8052,0.002807
1863.6689,0.002948
1865.5326,0.003193
1867.3963,0.003099
1869.2599,0.002994
1871.1236,0.003121
1872.9873,0.003186
1874.8509,0.003367
1876.7146,0.003286
1878.5783,0.002962
1880.4419,0.003036
1882.3056,0.003274
1884.1693,0.003180
1886.0329,0.002601
1887.8966,0.002313
1889.7603,0.002279
1891.6240,0.002423
1893.4876,0.002734
1895.3513,0.003093
1897.2150,0.003291
1899.0786,0.003089
1900.9423,0.002781
1902.8060,0.002634
1904.6696,0.002503
1906.5333,0.002739
1908.3970,0.002721
1910.2606,0.002342
1912.1243,0.002490
1913.9880,0.002964
1915.8516,0.002937
1917.7153,0.002506
1919.5790,0.002321
1921.4427,0.002370
1923.3063,0.002224
1925.1700,0.002552
1927.0337,0.002637
1928.8973,0.002340
1930.7610,0.002208
1932.6247,0.002367
1934.4883,0.002026
1936.3520,0.001155
1938.2157,0.000648
1940.0793,0.001122
1941.9430,0.001941
1943.8067,0.002198
1945.6704,0.001785
1947.5340,0.001525
1949.3977,0.001017
1951.2614,0.001032
1953.1250,0.001787
1954.9887,0.001823
1956.8524,0.001025
1958.7160,0.000936
1960.5797,0.001139
1962.4434,0.001265
1964.3070,0.000048
1966.1707,-0.001733
1968.0344,-0.001643
1969.8980,-0.000864
1971.7617,-0.000798
1973.6254,-0.000455
1975.4891,0.000200
1977.3527,0.000377
1979.2164,0.000069
1981.0801,0.001392
1982.9437,0.002416
1984.8074,0.002065
1986.6711,0.002114
1988.5347,0.001932
1990.3984,0.001074
1992.2621,0.000344
1994.1257,0.000555
1995.9894,0.001177
1997.8531,0.001891
1999.7167,0.002547
2001.5804,0.000695
2003.4441,-0.000065
2005.3078,0.000372
2007.1714,0.000092
2009.0351,0.000398
2010.8988,0.000861
2012.7624,0.000731
2014.6261,-0.000073
2016.4898,0.000335
2018.3534,0.001114
2020.2171,0.000954
2022.0808,0.000580
2023.9444,-0.000120
2025.8081,0.000306
2027.6718,0.001678
2029.5355,0.002509
2031.3991,0.003022
2033.2628,0.002867
2035.1265,0.003150
2036.9901,0.003351
2038.8538,0.003464
2040.7175,0.003434
2042.5811,0.003756
2044.4448,0.004427
2046.3085,0.004739
2048.1721,0.005594
2050.0358,0.005909
2051.8995,0.006568
2053.7631,0.007097
2055.6268,0.006657
2057.4905,0.006818
2059.3542,0.007759
2061.2178,0.008319
2063.0815,0.008036
2064.9452,0.007374
2066.8088,0.007003
2068.6725,0.007218
2070.5362,0.007285
2072.3998,0.006584
2074.2635,0.006210
2076.1272,0.005953
2077.9908,0.006370
2079.8545,0.006742
2081.7182,0.005943
2083.5819,0.005112
2085.4455,0.004878
2087.3092,0.004704
2089.1729,0.004545
2091.0365,0.004415
2092.9002,0.003892
2094.7639,0.003891
2096.6275,0.004642
2098.4912,0.004603
2100.3549,0.004015
2102.2185,0.003683
2104.0822,0.004168
2105.9459,0.004731
2107.8095,0.004333
2109.6732,0.003873
2111.5369,0.003965
2113.4006,0.004301
2115.2642,0.004526
2117.1279,0.004237
2118.9916,0.004146
2120.8552,0.003715
2122.7189,0.003022
2124.5826,0.002995
2126.4462,0.003595
2128.3099,0.003489
2130.1736,0.002837
2132.0372,0.002890
2133.9009,0.002978
2135.7646,0.002684
2137.6282,0.001895
2139.4919,0.000958
2141.3556,0.000965
2143.2193,0.000732
2145.0829,0.000488
2146.9466,0.000387
2148.8103,0.000659
2150.6739,0.000350
2152.5376,-0.000450
2154.4013,0.000611
2156.2649,0.000500
2158.1286,-0.001695
2159.9923,-0.001398
2161.8559,0.001071
2163.7196,0.001810
2165.5833,0.001413
2167.4470,0.001545
2169.3106,0.001665
2171.1743,0.002536
2173.0380,0.002819
2174.9016,0.003138
2176.7653,0.003324
2178.6290,0.002416
2180.4926,0.002456
2182.3563,0.003756
2184.2200,0.003719
2186.0836,0.003656
2187.9473,0.003747
2189.8110,0.003127
2191.6746,0.002966
2193.5383,0.002566
2195.4020,0.002710
2197.2657,0.003843
2199.1293,0.003732
2200.9930,0.003333
2202.8567,0.003059
2204.7203,0.002714
2206.5840,0.003081
2208.4477,0.004208
2210.3113,0.004274
2212.1750,0.003879
2214.0387,0.004476
2215.9023,0.004787
2217.7660,0.004502
2219.6297,0.004414
2221.4934,0.004470
2223.3570,0.004277
2225.2207,0.004656
2227.0844,0.005275
2228.9480,0.005398
2230.8117,0.005236
2232.6754,0.004747
2234.5390,0.004838
2236.4027,0.005367
2238.2664,0.005387
2240.1300,0.005308
2241.9937,0.005424
2243.8574,0.005174
2245.7210,0.005035
2247.5847,0.005527
2249.4484,0.006104
2251.3121,0.006615
2253.1757,0.006328
2255.0394,0.005064
2256.9031,0.004819
2258.7667,0.005826
2260.6304,0.006593
2262.4941,0.006650
2264.3577,0.006376
2266.2214,0.006231
2268.0851,0.006388
2269.9487,0.006831
2271.8124,0.006458
2273.6761,0.006396
2275.5397,0.006929
2277.4034,0.007069
2279.2671,0.007062
2281.1308,0.007091
2282.9944,0.007009
2284.8581,0.007007
2286.7218,0.007598
2288.5854,0.008036
2290.4491,0.007689
2292.3128,0.007332
2294.1764,0.007378
2296.0401,0.007458
2297.9038,0.007552
2299.7674,0.007505
2301.6311,0.007192
2303.4948,0.007287
2305.3585,0.007577
2307.2221,0.007491
2309.0858,0.007307
2310.9495,0.007273
2312.8131,0.007489
2314.6768,0.007433
2316.5405,0.007197
2318.4041,0.007345
2320.2678,0.007966
2322.1315,0.008199
2323.9951,0.007792
2325.8588,0.007315
2327.7225,0.007150
2329.5861,0.006963
2331.4498,0.006517
2333.3135,0.006688
2335.1772,0.007143
2337.0408,0.007010
2338.9045,0.007043
2340.7682,0.007184
2342.6318,0.006738
2344.4955,0.006704
2346.3592,0.007109
2348.2228,0.007369
2350.0865,0.007257
2351.9502,0.006898
2353.8138,0.006446
2355.6775,0.005875
2357.5412,0.005872
2359.4049,0.005626
2361.2685,0.005732
2363.1322,0.006377
2364.9959,0.006120
2366.8595,0.006243
2368.7232,0.007243
2370.5869,0.007524
2372.4505,0.007764
2374.3142,0.007847
2376.1779,0.007653
2378.0415,0.007857
2379.9052,0.007848
2381.7689,0.007638
2383.6325,0.007799
2385.4962,0.007787
2387.3599,0.007771
2389.2236,0.007889
2391.0872,0.007795
2392.9509,0.007904
2394.8146,0.008095
2396.6782,0.008086
2398.5419,0.008077
2400.4056,0.008046
2402.2692,0.007968
2404.1329,0.007945
2405.9966,0.007931
2407.8602,0.008088
2409.7239,0.008335
2411.5876,0.008263
2413.4512,0.008097
2415.3149,0.008164
2417.1786,0.008240
2419.0423,0.008001
2420.9059,0.007958
2422.7696,0.008253
2424.6333,0.008286
2426.4969,0.008141
2428.3606,0.008199
2430.2243,0.008446
2432.0879,0.008441
2433.9516,0.008263
2435.8153,0.008351
2437.6789,0.008487
2439.5426,0.008489
2441.4063,0.008275
2443.2700,0.008200
2445.1336,0.008527
2446.9973,0.008628
2448.8610,0.008335
2450.7246,0.008322
2452.5883,0.008518
2454.4520,0.008761
2456.3156,0.008865
2458.1793,0.008726
2460.0430,0.008536
2461.9066,0.008474
2463.7703,0.008369
2465.6340,0.008574
2467.4976,0.008852
2469.3613,0.008652
2471.2250,0.008407
2473.0887,0.008534
2474.9523,0.008429
2476.8160,0.008389
2478.6797,0.008619
2480.5433,0.008787
2482.4070,0.008821
2484.2707,0.008487
2486.1343,0.008184
2487.9980,0.008370
2489.8617,0.008441
2491.7253,0.008684
2493.5890,0.008796
2495.4527,0.008601
2497.3164,0.008774
2499.1800,0.009080
2501.0437,0.009060
2502.9074,0.008964
2504.7710,0.008948
2506.6347,0.008826
2508.4984,0.008774
2510.3620,0.008863
2512.2257,0.009030
2514.0894,0.009251
2515.9530,0.009162
2517.8167,0.009296
2519.6804,0.009446
2521.5440,0.009278
2523.4077,0.009256
2525.2714,0.009405
2527.1351,0.009597
2528.9987,0.009415
2530.8624,0.009082
2532.7261,0.009040
2534.5897,0.009155
2536.4534,0.009196
2538.3171,0.009425
2540.1807,0.009658
2542.0444,0.009486
2543.9081,0.009343
2545.7717,0.009227
2547.6354,0.009135
2549.4991,0.009239
2551.3627,0.009438
2553.2264,0.009791
2555.0901,0.010011
2556.9538,0.009773
2558.8174,0.009767
2560.6811,0.009940
2562.5448,0.010042
2564.4084,0.010033
2566.2721,0.010135
2568.1358,0.010511
2569.9994,0.010311
2571.8631,0.009664
2573.7268,0.009518
2575.5904,0.009771
2577.4541,0.010018
2579.3178,0.010286
2581.1815,0.010562
2583.0451,0.010509
2584.9088,0.010578
2586.7725,0.010696
2588.6361,0.010359
2590.4998,0.010425
2592.3635,0.011010
2594.2271,0.011381
2596.0908,0.011137
2597.9545,0.010905
2599.8181,0.011123
2601.6818,0.011109
2603.5455,0.011131
2605.4091,0.011250
2607.2728,0.011304
2609.1365,0.011494
2611.0002,0.011647
2612.8638,0.011637
2614.7275,0.011704
2616.5912,0.012011
2618.4548,0.012084
2620.3185,0.011659
2622.1822,0.011592
2624.0458,0.012009
2625.9095,0.012221
2627.7732,0.012253
2629.6368,0.012483
2631.5005,0.012643
2633.3642,0.012498
2635.2279,0.012313
2637.0915,0.012344
2638.9552,0.012469
2640.8189,0.012484
2642.6825,0.012467
2644.5462,0.012467
2646.4099,0.012541
2648.2735,0.012741
2650.1372,0.012853
2652.0009,0.012864
2653.8645,0.012785
2655.7282,0.012779
2657.5919,0.012922
2659.4555,0.013028
2661.3192,0.012989
2663.1829,0.012930
2665.0466,0.012965
2666.9102,0.012913
2668.7739,0.012790
2670.6376,0.012793
2672.5012,0.012975
2674.3649,0.013221
2676.2286,0.013348
2678.0922,0.013333
2679.9559,0.013372
2681.8196,0.013467
2683.6832,0.013537
2685.5469,0.013647
2687.4106,0.013704
2689.2742,0.013779
2691.1379,0.013859
2693.0016,0.013820
2694.8653,0.013876
2696.7289,0.014019
2698.5926,0.013994
2700.4563,0.013950
2702.3199,0.013965
2704.1836,0.014096
2706.0473,0.014335
2707.9109,0.014442
2709.7746,0.014504
2711.6383,0.014532
2713.5019,0.014605
2715.3656,0.014630
2717.2293,0.014599
2719.0930,0.014698
2720.9566,0.014725
2722.8203,0.014803
2724.6840,0.015122
2726.5476,0.015414
2728.4113,0.015412
2730.2750,0.015233
2732.1386,0.015255
2734.0023,0.015523
2735.8660,0.015687
2737.7296,0.015635
2739.5933,0.015620
2741.4570,0.015897
2743.3206,0.016031
2745.1843,0.015906
2747.0480,0.016011
2748.9117,0.016313
2750.7753,0.016390
2752.6390,0.016390
2754.5027,0.016454
2756.3663,0.016509
2758.2300,0.016649
2760.0937,0.016745
2761.9573,0.016724
2763.8210,0.016675
2765.6847,0.016697
2767.5483,0.017060
2769.4120,0.017447
2771.2757,0.017482
2773.1394,0.017484
2775.0030,0.017586
2776.8667,0.017571
2778.7304,0.017626
2780.5940,0.017958
2782.4577,0.018251
2784.3214,0.018161
2786.1850,0.018096
2788.0487,0.018102
2789.9124,0.018142
2791.7760,0.018446
2793.6397,0.018643
2795.5034,0.018610
2797.3670,0.018683
2799.2307,0.018854
2801.0944,0.018936
2802.9581,0.019161
2804.8217,0.019513
2806.6854,0.019534
2808.5491,0.019578
2810.4127,0.019819
2812.2764,0.019800
2814.1401,0.019802
2816.0037,0.019876
2817.8674,0.019946
2819.7311,0.020129
2821.5947,0.020245
2823.4584,0.020221
2825.3221,0.020304
2827.1857,0.020521
2829.0494,0.020707
2830.9131,0.021037
2832.7768,0.021257
2834.6404,0.021360
2836.5041,0.021621
2838.3678,0.021763
2840.2314,0.022032
2842.0951,0.022480
2843.9588,0.022539
2845.8224,0.022505
2847.6861,0.022861
2849.5498,0.023347
2851.4134,0.023568
2853.2771,0.023633
2855.1408,0.023835
2857.0045,0.024060
2858.8681,0.024205
2860.7318,0.024300
2862.5955,0.024279
2864.4591,0.024423
2866.3228,0.024646
2868.1865,0.024840
2870.0501,0.025017
2871.9138,0.025190
2873.7775,0.025535
2875.6411,0.025688
2877.5048,0.025552
2879.3685,0.025631
2881.2321,0.025781
2883.0958,0.025731
2884.9595,0.025648
2886.8232,0.025526
2888.6868,0.025502
2890.5505,0.025615
2892.4142,0.025839
2894.2778,0.025972
2896.1415,0.025991
2898.0052,0.026163
2899.8688,0.026210
2901.7325,0.026421
2903.5962,0.026846
2905.4598,0.027219
2907.3235,0.027607
2909.1872,0.027860
2911.0509,0.027924
2912.9145,0.027846
2914.7782,0.028381
2916.6419,0.029206
2918.5055,0.029235
2920.3692,0.029298
2922.2329,0.029699
2924.0965,0.029704
2925.9602,0.029526
2927.8239,0.029669
2929.6875,0.029940
2931.5512,0.029937
2933.4149,0.029645
2935.2785,0.029438
2937.1422,0.029449
2939.0059,0.029298
2940.8696,0.029254
2942.7332,0.029164
2944.5969,0.028856
2946.4606,0.028814
2948.3242,0.028955
2950.1879,0.029219
2952.0516,0.029316
2953.9152,0.029326
2955.7789,0.029540
2957.6426,0.029588
2959.5062,0.029368
2961.3699,0.029122
2963.2336,0.028996
2965.0972,0.029037
2966.9609,0.029249
2968.8246,0.029123
2970.6883,0.028679
2972.5519,0.028439
2974.4156,0.028273
2976.2793,0.028184
2978.1429,0.028018
2980.0066,0.027852
2981.8703,0.027841
2983.7339,0.027432
2985.5976,0.026792
2987.4613,0.026739
2989.3249,0.027206
2991.1886,0.027279
2993.0523,0.027142
2994.9160,0.027313
2996.7796,0.027286
2998.6433,0.027130
3000.5070,0.027170
3002.3706,0.027211
3004.2343,0.027195
3006.0980,0.027331
3007.9616,0.027570
3009.8253,0.027880
3011.6890,0.028099
3013.5526,0.028041
3015.4163,0.028129
3017.2800,0.028385
3019.1436,0.028483
3021.0073,0.028487
3022.8710,0.028623
3024.7347,0.028978
3026.5983,0.029254
3028.4620,0.029183
3030.3257,0.029140
3032.1893,0.029512
3034.0530,0.029763
3035.9167,0.029890
3037.7803,0.030170
3039.6440,0.030288
3041.5077,0.030526
3043.3713,0.030923
3045.2350,0.031091
3047.0987,0.031158
3048.9624,0.031080
3050.8260,0.031052
3052.6897,0.031374
3054.5534,0.031788
3056.4170,0.031985
3058.2807,0.032001
3060.1444,0.032105
3062.0080,0.032182
3063.8717,0.032391
3065.7354,0.032723
3067.5990,0.032866
3069.4627,0.032733
3071.3264,0.032718
3073.1900,0.033081
3075.0537,0.033455
3076.9174,0.033511
3078.7811,0.033209
3080.6447,0.033122
3082.5084,0.033292
3084.3721,0.033309
3086.2357,0.033549
3088.0994,0.033835
3089.9631,0.033782
3091.8267,0.033578
3093.6904,0.033539
3095.5541,0.033737
3097.4177,0.033785
3099.2814,0.033411
3101.1451,0.033417
3103.0087,0.033752
3104.8724,0.033603
3106.7361,0.033269
3108.5998,0.033217
3110.4634,0.033570
3112.3271,0.033964
3114.1908,0.034173
3116.0544,0.034065
3117.9181,0.033820
3119.7818,0.033992
3121.6454,0.034300
3123.5091,0.034567
3125.3728,0.034639
3127.2364,0.034532
3129.1001,0.034719
3130.9638,0.034982
3132.8275,0.035129
3134.6911,0.035376
3136.5548,0.035417
3138.4185,0.035365
3140.2821,0.035816
3142.1458,0.036196
3144.0095,0.036191
3145.8731,0.036447
3147.7368,0.036747
3149.6005,0.036753
3151.4641,0.036624
3153.3278,0.036819
3155.1915,0.037436
3157.0551,0.037736
3158.9188,0.037927
3160.7825,0.038290
3162.6462,0.038534
3164.5098,0.038631
3166.3735,0.038702
3168.2372,0.039183
3170.1008,0.039720
3171.9645,0.039760
3173.8282,0.039515
3175.6918,0.039878
3177.5555,0.040401
3179.4192,0.040659
3181.2828,0.040896
3183.1465,0.040756
3185.0102,0.041006
3186.8739,0.041654
3188.7375,0.041777
3190.6012,0.041604
3192.4649,0.041849
3194.3285,0.042404
3196.1922,0.042272
3198.0559,0.041889
3199.9195,0.042224
3201.7832,0.042804
3203.6469,0.042994
3205.5105,0.042976
3207.3742,0.043175
3209.2379,0.043156
3211.1015,0.042981
3212.9652,0.043156
3214.8289,0.043302
3216.6926,0.043228
3218.5562,0.043015
3220.4199,0.043317
3222.2836,0.043827
3224.1472,0.043902
3226.0109,0.043761
3227.8746,0.043790
3229.7382,0.043943
3231.6019,0.044135
3233.4656,0.044403
3235.3292,0.044370
3237.1929,0.044447
3239.0566,0.044829
3240.9202,0.044817
3242.7839,0.044516
3244.6476,0.044783
3246.5113,0.045111
3248.3749,0.045171
3250.2386,0.045578
3252.1023,0.045846
3253.9659,0.045962
3255.8296,0.046277
3257.6933,0.046143
3259.5569,0.045630
3261.4206,0.045720
3263.2843,0.046119
3265.1479,0.046369
3267.0116,0.046287
3268.8753,0.046413
3270.7390,0.046642
3272.6026,0.046463
3274.4663,0.046523
3276.3300,0.046660
3278.1936,0.046191
3280.0573,0.045923
3281.9210,0.046133
3283.7846,0.046186
3285.6483,0.045968
3287.5120,0.045984
3289.3756,0.046003
3291.2393,0.045650
3293.1030,0.045187
3294.9666,0.044943
3296.8303,0.044865
3298.6940,0.044708
3300.5577,0.044341
3302.4213,0.044141
3304.2850,0.044115
3306.1487,0.043911
3308.0123,0.043816
3309.8760,0.043750
3311.7397,0.043335
3313.6033,0.042890
3315.4670,0.042501
3317.3307,0.042134
3319.1943,0.041789
3321.0580,0.041622
3322.9217,0.041678
3324.7854,0.041755
3326.6490,0.041689
3328.5127,0.041483
3330.3764,0.041297
3332.2400,0.041309
3334.1037,0.041204
3335.9674,0.040827
3337.8310,0.040581
3339.6947,0.040378
3341.5584,0.040005
3343.4220,0.040169
3345.2857,0.040405
3347.1494,0.039983
3349.0130,0.039571
3350.8767,0.039558
3352.7404,0.039145
3354.6041,0.038747
3356.4677,0.038897
3358.3314,0.038887
3360.1951,0.038644
3362.0587,0.038516
3363.9224,0.038263
3365.7861,0.037833
3367.6497,0.037738
3369.5134,0.037680
3371.3771,0.037566
3373.2407,0.037543
3375.1044,0.037285
3376.9681,0.037097
3378.8317,0.036898
3380.6954,0.036530
3382.5591,0.036511
3384.4228,0.036325
3386.2864,0.035625
3388.1501,0.035211
3390.0138,0.034911
3391.8774,0.035009
3393.7411,0.035395
3395.6048,0.035375
3397.4684,0.035130
3399.3321,0.034685
3401.1958,0.034124
3403.0594,0.033961
3404.9231,0.033884
3406.7868,0.033928
3408.6505,0.033991
3410.5141,0.033989
3412.3778,0.034035
3414.2415,0.034063
3416.1051,0.033774
3417.9688,0.033164
3419.8325,0.033014
3421.6961,0.032810
3423.5598,0.032204
3425.4235,0.032175
3427.2871,0.032129
3429.1508,0.031790
3431.0145,0.031876
3432.8781,0.032152
3434.7418,0.032224
3436.6055,0.031776
3438.4692,0.031320
3440.3328,0.031093
3442.1965,0.030550
3444.0602,0.030394
3445.9238,0.030237
3447.7875,0.029983
3449.6512,0.030073
3451.5148,0.029957
3453.3785,0.029486
3455.2422,0.029145
3457.1058,0.028970
3458.9695,0.028740
3460.8332,0.028588
3462.6969,0.028144
3464.5605,0.027601
3466.4242,0.027661
3468.2879,0.027606
3470.1515,0.026973
3472.0152,0.026756
3473.8789,0.027013
3475.7425,0.026665
3477.6062,0.025985
3479.4699,0.025410
3481.3335,0.024782
3483.1972,0.024392
3485.0609,0.024442
3486.9245,0.024337
3488.7882,0.023891
3490.6519,0.023347
3492.5156,0.022938
3494.3792,0.022635
3496.2429,0.022688
3498.1066,0.022625
3499.9702,0.021946
3501.8339,0.021446
3503.6976,0.021421
3505.5612,0.021091
3507.4249,0.020852
3509.2886,0.021002
3511.1522,0.021102
3513.0159,0.020438
3514.8796,0.019314
3516.7432,0.018978
3518.6069,0.019031
3520.4706,0.018552
3522.3343,0.017857
3524.1979,0.017692
3526.0616,0.017862
3527.9253,0.017841
3529.7889,0.017692
3531.6526,0.016998
3533.5163,0.016326
3535.3799,0.015995
3537.2436,0.015945
3539.1073,0.016013
3540.9709,0.015516
3542.8346,0.014780
3544.6983,0.014319
3546.5620,0.014257
3548.4256,0.014349
3550.2893,0.014308
3552.1530,0.013984
3554.0166,0.013487
3555.8803,0.013236
3557.7440,0.012742
3559.6076,0.012148
3561.4713,0.011799
3563.3350,0.011824
3565.1986,0.011509
3567.0623,0.010852
3568.9260,0.010793
3570.7896,0.010920
3572.6533,0.011122
3574.5170,0.011166
3576.3807,0.010443
3578.2443,0.009536
3580.1080,0.009035
3581.9717,0.008607
3583.8353,0.008356
3585.6990,0.008325
3587.5627,0.008161
3589.4263,0.007850
3591.2900,0.007861
3593.1537,0.008014
3595.0173,0.007600
3596.8810,0.007256
3598.7447,0.006910
3600.6084,0.006708
3602.4720,0.006627
3604.3357,0.006239
3606.1994,0.005564
3608.0630,0.005085
3609.9267,0.005538
3611.7904,0.005918
3613.6540,0.005490
3615.5177,0.005369
3617.3814,0.005003
3619.2450,0.004156
3621.1087,0.003553
3622.9724,0.003467
3624.8360,0.004047
3626.6997,0.004682
3628.5634,0.004238
3630.4271,0.003485
3632.2907,0.003215
3634.1544,0.002662
3636.0181,0.002322
3637.8817,0.002320
3639.7454,0.002158
3641.6091,0.001965
3643.4727,0.001692
3645.3364,0.001388
3647.2001,0.001012
3649.0637,0.001014
3650.9274,0.001129
3652.7911,0.000993
3654.6547,0.001042
3656.5184,0.000702
3658.3821,0.000183
3660.2458,0.000360
3662.1094,0.000702
3663.9731,0.000646
3665.8368,0.000052
3667.7004,-0.000353
3669.5641,-0.000612
3671.4278,-0.000726
3673.2914,-0.000166
3675.1551,-0.000512
3677.0188,-0.001414
3678.8824,-0.000995
3680.7461,-0.000555
3682.6098,-0.000690
3684.4735,-0.000681
3686.3371,-0.000282
3688.2008,-0.000545
3690.0645,-0.001218
3691.9281,-0.000881
3693.7918,-0.000608
3695.6555,-0.000856
3697.5191,-0.001153
3699.3828,-0.000958
3701.2465,-0.000441
3703.1101,-0.000615
3704.9738,-0.001010
3706.8375,-0.001023
3708.7011,-0.001271
3710.5648,-0.001317
3712.4285,-0.001217
3714.2922,-0.001237
3716.1558,-0.000932
3718.0195,-0.001030
3719.8832,-0.001394
3721.7468,-0.001483
3723.6105,-0.001246
3725.4742,-0.001083
3727.3378,-0.001328
3729.2015,-0.001366
3731.0652,-0.001248
3732.9288,-0.000734
3734.7925,-0.000876
3736.6562,-0.001603
3738.5199,-0.001239
3740.3835,-0.000578
3742.2472,-0.000571
3744.1109,-0.001006
3745.9745,-0.001533
3747.8382,-0.001471
3749.7019,-0.001325
3751.5655,-0.001084
3753.4292,-0.000910
3755.2929,-0.000701
3757.1565,-0.000553
3759.0202,-0.000540
3760.8839,-0.000608
3762.7475,-0.000974
3764.6112,-0.000786
3766.4749,-0.000400
3768.3386,-0.000969
3770.2022,-0.001237
3772.0659,-0.000667
3773.9296,-0.000335
3775.7932,-0.000357
3777.6569,-0.000568
3779.5206,-0.000557
3781.3842,-0.000383
3783.2479,-0.000407
3785.1116,-0.000470
3786.9752,-0.000652
3788.8389,-0.000866
3790.7026,-0.000984
3792.5662,-0.000992
3794.4299,-0.001049
3796.2936,-0.001270
3798.1573,-0.000854
3800.0209,-0.000227
3801.8846,-0.000623
3803.7483,-0.000990
3805.6119,-0.000673
3807.4756,-0.000710
3809.3393,-0.000831
3811.2029,-0.000833
3813.0666,-0.000678
3814.9303,-0.000729
3816.7939,-0.001214
3818.6576,-0.000973
3820.5213,-0.000706
3822.3850,-0.001030
3824.2486,-0.000778
3826.1123,-0.000643
3827.9760,-0.000774
3829.8396,-0.000888
3831.7033,-0.000959
3833.5670,-0.001026
3835.4306,-0.000983
3837.2943,-0.000740
3839.1580,-0.000537
3841.0216,-0.000745
3842.8853,-0.000707
3844.7490,-0.000503
3846.6126,-0.000672
3848.4763,-0.000865
3850.3400,-0.000974
3852.2037,-0.001062
3854.0673,-0.001070
3855.9310,-0.000945
3857.7947,-0.000658
3859.6583,-0.000553
3861.5220,-0.000400
3863.3857,-0.000468
3865.2493,-0.000508
3867.1130,-0.000472
3868.9767,-0.000386
3870.8403,-0.000483
3872.7040,-0.000680
3874.5677,-0.000947
3876.4314,-0.000973
3878.2950,-0.000751
3880.1587,-0.001055
3882.0224,-0.001085
3883.8860,-0.000694
3885.7497,-0.000775
3887.6134,-0.000587
3889.4770,-0.000617
3891.3407,-0.001032
3893.2044,-0.001184
3895.0680,-0.000926
3896.9317,-0.000527
3898.7954,-0.000248
3900.6590,-0.000291
3902.5227,-0.001009
3904.3864,-0.001306
3906.2501,-0.001035
3908.1137,-0.000713
3909.9774,-0.000259
3911.8411,0.000047
3913.7047,-0.000141
3915.5684,-0.000784
3917.4321,-0.000779
3919.2957,-0.000408
3921.1594,-0.000527
3923.0231,-0.000275
3924.8867,-0.000224
3926.7504,-0.000334
3928.6141,0.000122
3930.4777,0.000180
3932.3414,-0.000477
3934.2051,-0.000782
3936.0688,-0.000242
3937.9324,0.000094
3939.7961,-0.000269
3941.6598,-0.000348
3943.5234,0.000288
3945.3871,0.000384
3947.2508,-0.000004
3949.1144,-0.000068
3950.9781,-0.000166
3952.8418,0.000019
3954.7054,0.000323
3956.5691,0.000105
3958.4328,0.000139
3960.2965,0.000116
3962.1601,-0.000280
3964.0238,-0.000474
3965.8875,-0.000108
3967.7511,-0.000315
3969.6148,-0.000698
3971.4785,-0.000119
3973.3421,0.000247
3975.2058,-0.000095
3977.0695,-0.000233
3978.9331,-0.000316
3980.7968,-0.000229
3982.6605,0.000017
3984.5241,-0.000019
3986.3878,0.000082
3988.2515,-0.000101
3990.1152,-0.000282
3991.9788,-0.000124
3993.8425,-0.000237
3995.7062,-0.000210
3997.5698,0.000143
3999.4335,-0.000091
