Wavenumber,Intensity
650.4205,0.115386
652.2841,0.117505
654.1478,0.118011
656.0115,0.115491
657.8751,0.113443
659.7388,0.112926
661.6025,0.113640
663.4661,0.113614
665.3298,0.112128
667.1935,0.110489
669.0571,0.109338
670.9208,0.109065
672.7845,0.108547
674.6481,0.107774
676.5118,0.108868
678.3755,0.110133
680.2392,0.108843
682.1028,0.106544
683.9665,0.106039
685.8302,0.105488
687.6938,0.104181
689.5575,0.102458
691.4212,0.100736
693.2848,0.100889
695.1485,0.101669
697.0122,0.101676
698.8758,0.101335
700.7395,0.099813
702.6032,0.098816
704.4669,0.098384
706.3305,0.097447
708.1942,0.096317
710.0579,0.095737
711.9215,0.094897
713.7852,0.093816
715.6489,0.093074
717.5125,0.091893
719.3762,0.090516
721.2399,0.088937
723.1035,0.088093
724.9672,0.088112
726.8309,0.087274
728.6945,0.086046
730.5582,0.085577
732.4219,0.085226
734.2856,0.084425
736.1492,0.084073
738.0129,0.083686
739.8766,0.082853
741.7402,0.082429
743.6039,0.082309
745.4676,0.082377
747.3312,0.081909
749.1949,0.080395
751.0586,0.079534
752.9222,0.079251
754.7859,0.078812
756.6496,0.078527
758.5132,0.078225
760.3769,0.078231
762.2406,0.078446
764.1043,0.078108
765.9679,0.077563
767.8316,0.077431
769.6953,0.076716
771.5589,0.075236
773.4226,0.074109
775.2863,0.073581
777.1499,0.073134
779.0136,0.072635
780.8773,0.072088
782.7409,0.071536
784.6046,0.070794
786.4683,0.070140
788.3320,0.069678
790.1956,0.068901
792.0593,0.068119
793.9230,0.067766
795.7866,0.067374
797.6503,0.066913
799.5140,0.066620
801.3776,0.066646
803.2413,0.066676
805.1050,0.066310
806.9686,0.065964
808.8323,0.065749
810.6960,0.065433
812.5596,0.065280
814.4233,0.065583
816.2870,0.065685
818.1507,0.065287
820.0143,0.065020
821.8780,0.064599
823.7417,0.063649
825.6053,0.062386
827.4690,0.061029
829.3327,0.059917
831.1963,0.059075
833.0600,0.058106
834.9237,0.057095
836.7873,0.056240
838.6510,0.055654
840.5147,0.055160
842.3784,0.054348
844.2420,0.053640
846.1057,0.053442
847.9694,0.053481
849.8330,0.053513
851.6967,0.053284
853.5604,0.052983
855.4240,0.052751
857.2877,0.052698
859.1514,0.053032
861.0150,0.053424
862.8787,0.053735
864.7424,0.054153
866.6060,0.054460
868.4697,0.054766
870.3334,0.055276
872.1971,0.055572
874.0607,0.055598
875.9244,0.055644
877.7881,0.055410
879.6517,0.054898
881.5154,0.054439
883.3791,0.054093
885.2427,0.053946
887.1064,0.053870
888.9701,0.053769
890.8337,0.053871
892.6974,0.054018
894.5611,0.053897
896.4247,0.053747
898.2884,0.053546
900.1521,0.053193
902.0158,0.052830
903.8794,0.052522
905.7431,0.052410
907.6068,0.052331
909.4704,0.052348
911.3341,0.052648
913.1978,0.053279
915.0614,0.054037
916.9251,0.054425
918.7888,0.054584
920.6524,0.054842
922.5161,0.055054
924.3798,0.055164
926.2435,0.055232
928.1071,0.055353
929.9708,0.055394
931.8345,0.055505
933.6981,0.055775
935.5618,0.056121
937.4255,0.056585
939.2891,0.057201
941.1528,0.057937
943.0165,0.058742
944.8801,0.059489
946.7438,0.059983
948.6075,0.060270
950.4711,0.060538
952.3348,0.060612
954.1985,0.060779
956.0622,0.061318
957.9258,0.062308
959.7895,0.063898
961.6532,0.065936
963.5168,0.067978
965.3805,0.069736
967.2442,0.070952
969.1078,0.071353
970.9715,0.071254
972.8352,0.071071
974.6988,0.071222
976.5625,0.071648
978.4262,0.072334
980.2899,0.073482
982.1535,0.074782
984.0172,0.076130
985.8809,0.077413
987.7445,0.078681
989.6082,0.080152
991.4719,0.081723
993.3355,0.083196
995.1992,0.084687
997.0629,0.086124
998.9265,0.087292
1000.7902,0.088272
1002.6539,0.089394
1004.5175,0.090859
1006.3812,0.092730
1008.2449,0.095080
1010.1086,0.097855
1011.9722,0.100906
1013.8359,0.104137
1015.6996,0.107486
1017.5632,0.110479
1019.4269,0.112879
1021.2906,0.114944
1023.1542,0.116605
1025.0179,0.117949
1026.8816,0.119143
1028.7452,0.120204
1030.6089,0.121178
1032.4726,0.121962
1034.3362,0.122278
1036.1999,0.122204
1038.0636,0.121867
1039.9273,0.121257
1041.7909,0.120562
1043.6546,0.119901
1045.5183,0.119287
1047.3819,0.118888
1049.2456,0.118628
1051.1093,0.118485
1052.9729,0.118490
1054.8366,0.118546
1056.7003,0.118720
1058.5639,0.118869
1060.4276,0.118783
1062.2913,0.118648
1064.1550,0.118774
1066.0186,0.119018
1067.8823,0.119165
1069.7460,0.119205
1071.6096,0.119027
1073.4733,0.118354
1075.3370,0.117024
1077.2006,0.115125
1079.0643,0.112766
1080.9280,0.109919
1082.7916,0.106431
1084.6553,0.102730
1086.5190,0.099218
1088.3826,0.095964
1090.2463,0.093213
1092.1100,0.090832
1093.9737,0.088686
1095.8373,0.086941
1097.7010,0.085409
1099.5647,0.084000
1101.4283,0.082885
1103.2920,0.082105
1105.1557,0.081565
1107.0193,0.081225
1108.8830,0.080978
1110.7467,0.080836
1112.6103,0.080730
1114.4740,0.080463
1116.3377,0.080027
1118.2014,0.079433
1120.0650,0.078767
1121.9287,0.078110
1123.7924,0.077399
1125.6560,0.076672
1127.5197,0.075936
1129.3834,0.075091
1131.2470,0.074099
1133.1107,0.073024
1134.9744,0.071875
1136.8380,0.070750
1138.7017,0.069774
1140.5654,0.068906
1142.4290,0.068216
1144.2927,0.067957
1146.1564,0.067897
1148.0201,0.067955
1149.8837,0.068178
1151.7474,0.068480
1153.6111,0.068681
1155.4747,0.068692
1157.3384,0.068531
1159.2021,0.068238
1161.0657,0.067775
1162.9294,0.067126
1164.7931,0.066290
1166.6567,0.065271
1168.5204,0.063876
1170.3841,0.062049
1172.2477,0.059908
1174.1114,0.057740
1175.9751,0.055662
1177.8388,0.053779
1179.7024,0.052343
1181.5661,0.051466
1183.4298,0.051016
1185.2934,0.050989
1187.1571,0.051287
1189.0208,0.051687
1190.8844,0.052309
1192.7481,0.053240
1194.6118,0.054335
1196.4754,0.055596
1198.3391,0.056973
1200.2028,0.058345
1202.0665,0.059668
1203.9301,0.060929
1205.7938,0.062116
1207.6575,0.063066
1209.5211,0.063900
1211.3848,0.064754
1213.2485,0.065573
1215.1121,0.066409
1216.9758,0.067253
1218.8395,0.068139
1220.7031,0.069069
1222.5668,0.069918
1224.4305,0.070682
1226.2941,0.071378
1228.1578,0.071959
1230.0215,0.072500
1231.8852,0.072879
1233.7488,0.072991
1235.6125,0.072996
1237.4762,0.072855
1239.3398,0.072591
1241.2035,0.072262
1243.0672,0.071812
1244.9308,0.071299
1246.7945,0.070661
1248.6582,0.069870
1250.5218,0.069122
1252.3855,0.068369
1254.2492,0.067549
1256.1129,0.066778
1257.9765,0.066110
1259.8402,0.065587
1261.7039,0.064972
1263.5675,0.064235
1265.4312,0.063693
1267.2949,0.063191
1269.1585,0.062652
1271.0222,0.062275
1272.8859,0.061977
1274.7495,0.061619
1276.6132,0.061284
1278.4769,0.061077
1280.3405,0.060935
1282.2042,0.060760
1284.0679,0.060648
1285.9316,0.060668
1287.7952,0.060719
1289.6589,0.060720
1291.5226,0.060755
1293.3862,0.060982
1295.2499,0.061331
1297.1136,0.061785
1298.9772,0.062315
1300.8409,0.062770
1302.7046,0.063109
1304.5682,0.063473
1306.4319,0.063830
1308.2956,0.064223
1310.1592,0.064645
1312.0229,0.065082
1313.8866,0.065239
1315.7503,0.065031
1317.6139,0.064861
1319.4776,0.064547
1321.3413,0.063972
1323.2049,0.063635
1325.0686,0.063279
1326.9323,0.062788
1328.7959,0.062370
1330.6596,0.062044
1332.5233,0.061847
1334.3869,0.061654
1336.2506,0.061718
1338.1143,0.062337
1339.9780,0.063008
1341.8416,0.062904
1343.7053,0.062605
1345.5690,0.062537
1347.4326,0.062509
1349.2963,0.062530
1351.1600,0.062670
1353.0236,0.062965
1354.8873,0.063315
1356.7510,0.063596
1358.6146,0.064021
1360.4783,0.065103
1362.3420,0.067088
1364.2056,0.068580
1366.0693,0.069438
1367.9330,0.070835
1369.7967,0.072087
1371.6603,0.073203
1373.5240,0.075064
1375.3877,0.076209
1377.2513,0.076188
1379.1150,0.076545
1380.9787,0.076664
1382.8423,0.076409
1384.7060,0.076369
1386.5697,0.077181
1388.4333,0.077422
1390.2970,0.076264
1392.1607,0.075767
1394.0244,0.076764
1395.8880,0.077473
1397.7517,0.077426
1399.6154,0.077432
1401.4790,0.076455
1403.3427,0.076099
1405.2064,0.076052
1407.0700,0.075097
1408.9337,0.074050
1410.7974,0.073322
1412.6610,0.072226
1414.5247,0.070801
1416.3884,0.070257
1418.2520,0.071433
1420.1157,0.071422
1421.9794,0.069890
1423.8431,0.069594
1425.7067,0.069229
1427.5704,0.069109
1429.4341,0.069959
1431.2977,0.070182
1433.1614,0.070070
1435.0251,0.071813
1436.8887,0.074964
1438.7524,0.074659
1440.6161,0.073774
1442.4797,0.073814
1444.3434,0.073816
1446.2071,0.074165
1448.0707,0.074551
1449.9344,0.073569
1451.7981,0.072062
1453.6618,0.070770
1455.5254,0.071369
1457.3891,0.073192
1459.2528,0.070203
1461.1164,0.067108
1462.9801,0.066053
1464.8438,0.066273
1466.7074,0.064597
1468.5711,0.062147
1470.4348,0.060956
1472.2984,0.061510
1474.1621,0.061006
1476.0258,0.059795
1477.8895,0.058577
1479.7531,0.058224
1481.6168,0.058708
1483.4805,0.058732
1485.3441,0.059426
1487.2078,0.061949
1489.0715,0.065836
1490.9351,0.068420
1492.7988,0.068613
1494.6625,0.070474
1496.5261,0.075415
1498.3898,0.079042
1500.2535,0.080109
1502.1171,0.080234
1503.9808,0.081984
1505.8445,0.089886
1507.7082,0.098068
1509.5718,0.097374
1511.4355,0.098010
1513.2992,0.099453
1515.1628,0.101297
1517.0265,0.103319
1518.8902,0.103848
1520.7538,0.106122
1522.6175,0.108018
1524.4812,0.108029
1526.3448,0.109354
1528.2085,0.109636
1530.0722,0.109496
1531.9359,0.110572
1533.7995,0.112119
1535.6632,0.110233
1537.5269,0.109640
1539.3905,0.112656
1541.2542,0.113680
1543.1179,0.111839
1544.9815,0.109904
1546.8452,0.107040
1548.7089,0.105175
1550.5725,0.102988
1552.4362,0.100066
1554.2999,0.097287
1556.1635,0.095208
1558.0272,0.096570
1559.8909,0.094647
1561.7546,0.088985
1563.6182,0.085928
1565.4819,0.083462
1567.3456,0.081548
1569.2092,0.080634
1571.0729,0.078010
1572.9366,0.075455
1574.8002,0.075184
1576.6639,0.075064
1578.5276,0.072777
1580.3912,0.071211
1582.2549,0.070416
1584.1186,0.070118
1585.9822,0.070196
1587.8459,0.070484
1589.7096,0.071289
1591.5733,0.072515
1593.4369,0.073988
1595.3006,0.075777
1597.1643,0.077525
1599.0279,0.079478
1600.8916,0.082098
1602.7553,0.085051
1604.6189,0.087925
1606.4826,0.091263
1608.3463,0.095078
1610.2099,0.098466
1612.0736,0.101298
1613.9373,0.104581
1615.8010,0.109899
1617.6646,0.114156
1619.5283,0.115104
1621.3920,0.117300
1623.2556,0.121271
1625.1193,0.123726
1626.9830,0.125316
1628.8466,0.126088
1630.7103,0.125577
1632.5740,0.125371
1634.4376,0.126848
1636.3013,0.126973
1638.1650,0.124208
1640.0286,0.121727
1641.8923,0.119504
1643.7560,0.117752
1645.6197,0.117007
1647.4833,0.114367
1649.3470,0.110747
1651.2107,0.109833
1653.0743,0.109699
1654.9380,0.103880
1656.8017,0.099473
1658.6653,0.095983
1660.5290,0.092934
1662.3927,0.089432
1664.2563,0.085172
1666.1200,0.081604
1667.9837,0.078761
1669.8474,0.075221
1671.7110,0.071432
1673.5747,0.068249
1675.4384,0.065009
1677.3020,0.061321
1679.1657,0.058201
1681.0294,0.055145
1682.8930,0.052741
1684.7567,0.048771
1686.6204,0.044585
1688.4840,0.041386
1690.3477,0.038112
1692.2114,0.034707
1694.0750,0.031758
1695.9387,0.028252
1697.8024,0.025077
1699.6661,0.022395
1701.5297,0.019059
1703.3934,0.017049
1705.2571,0.015424
1707.1207,0.013642
1708.9844,0.012445
1710.8481,0.011409
1712.7117,0.010687
1714.5754,0.009920
1716.4391,0.009061
1718.3027,0.008212
1720.1664,0.007789
1722.0301,0.007241
1723.8937,0.006569
1725.7574,0.006127
1727.6211,0.005915
1729.4848,0.005435
1731.3484,0.005283
1733.2121,0.005021
1735.0758,0.004460
1736.9394,0.004390
1738.8031,0.004298
1740.6668,0.003997
1742.5304,0.003746
1744.3941,0.003382
1746.2578,0.003299
1748.1214,0.003256
1749.9851,0.002749
1751.8488,0.001977
1753.7125,0.001457
1755.5761,0.001069
1757.4398,0.000983
1759.3035,0.001065
1761.1671,0.000815
1763.0308,0.000451
1764.8945,0.000195
1766.7581,0.000163
1768.6218,0.000405
1770.4855,0.000378
1772.3491,0.000155
1774.2128,-0.000147
1776.0765,-0.000209
1777.9401,-0.000136
1779.8038,-0.000149
1781.6675,-0.000190
1783.5312,-0.000089
1785.3948,-0.000178
1787.2585,-0.000266
1789.1222,-0.000201
1790.9858,-0.000122
1792.8495,-0.000262
1794.7132,-0.000231
1796.5768,-0.000240
1798.4405,-0.000143
1800.3042,-0.000226
1802.1678,-0.000628
1804.0315,-0.000643
1805.8952,-0.000385
1807.7589,-0.000529
1809.6225,-0.000557
1811.4862,-0.000691
1813.3499,-0.000796
1815.2135,-0.000916
1817.0772,-0.000996
1818.9409,-0.000890
1820.8045,-0.000919
1822.6682,-0.000870
1824.5319,-0.000650
1826.3955,-0.000697
1828.2592,-0.000821
1830.1229,-0.000634
1831.9865,-0.000392
1833.8502,-0.000268
1835.7139,-0.000368
1837.5776,-0.000655
1839.4412,-0.000856
1841.3049,-0.000860
1843.1686,-0.000579
1845.0322,-0.000273
1846.8959,-0.000173
1848.7596,-0.000239
1850.6232,-0.000306
1852.4869,-0.000531
1854.3506,-0.000716
1856.2142,-0.000477
1858.0779,-0.000488
1859.9416,-0.000777
1861.8052,-0.000884
1863.6689,-0.000974
1865.5326,-0.000613
1867.3963,-0.000123
1869.2599,-0.000251
1871.1236,-0.000250
1872.9873,-0.000187
1874.8509,-0.000230
1876.7146,-0.000247
1878.5783,0.000014
1880.4419,-0.000061
1882.3056,-0.000351
1884.1693,-0.000172
1886.0329,0.000137
1887.8966,0.000353
1889.7603,0.000265
1891.6240,0.000050
1893.4876,0.000001
1895.3513,-0.000189
1897.2150,-0.000402
1899.0786,-0.000436
1900.9423,-0.000212
1902.8060,0.000065
1904.6696,0.000145
1906.5333,0.000478
1908.3970,0.000228
1910.2606,-0.000285
1912.1243,-0.000199
1913.9880,0.000100
1915.8516,0.000401
1917.7153,0.000324
1919.5790,0.000049
1921.4427,0.000185
1923.3063,0.000364
1925.1700,0.000016
1927.0337,-0.000508
1928.8973,-0.000372
1930.7610,0.000200
1932.6247,0.000381
1934.4883,-0.000113
1936.3520,-0.000093
1938.2157,0.000621
1940.0793,0.001161
1941.9430,0.000950
1943.8067,0.000297
1945.6704,0.000311
1947.5340,0.000266
1949.3977,0.000081
1951.2614,0.000639
1953.1250,0.001457
1954.9887,0.001760
1956.8524,0.000612
1958.7160,0.000126
1960.5797,0.000642
1962.4434,0.001175
1964.3070,0.001515
1966.1707,0.002063
1968.0344,0.002199
1969.8980,0.001235
1971.7617,0.000510
1973.6254,0.001586
1975.4891,0.003041
1977.3527,0.002883
1979.2164,0.002628
1981.0801,0.003045
1982.9437,0.002507
1984.8074,0.002078
1986.6711,0.001989
1988.5347,0.002072
1990.3984,0.002922
1992.2621,0.003612
1994.1257,0.003389
1995.9894,0.002391
1997.8531,0.001648
1999.7167,0.001219
2001.5804,0.001204
2003.4441,0.001395
2005.3078,0.001551
2007.1714,0.001728
2009.0351,0.002378
2010.8988,0.003175
2012.7624,0.003558
2014.6261,0.003264
2016.4898,0.001792
2018.3534,0.001962
2020.2171,0.002942
2022.0808,0.002579
2023.9444,0.002541
2025.8081,0.003895
2027.6718,0.004193
2029.5355,0.004053
2031.3991,0.004955
2033.2628,0.004975
2035.1265,0.003940
2036.9901,0.003509
2038.8538,0.003922
2040.7175,0.004372
2042.5811,0.004693
2044.4448,0.005618
2046.3085,0.006324
2048.1721,0.006100
2050.0358,0.005938
2051.8995,0.005197
2053.7631,0.004675
2055.6268,0.005234
2057.4905,0.005655
2059.3542,0.006098
2061.2178,0.005810
2063.0815,0.004835
2064.9452,0.004553
2066.8088,0.005272
2068.6725,0.005282
2070.5362,0.005004
2072.3998,0.005474
2074.2635,0.005376
2076.1272,0.004834
2077.9908,0.004636
2079.8545,0.004600
2081.7182,0.004871
2083.5819,0.004888
2085.4455,0.004587
2087.3092,0.004387
2089.1729,0.004129
2091.0365,0.003773
2092.9002,0.003737
2094.7639,0.004208
2096.6275,0.004818
2098.4912,0.005036
2100.3549,0.004550
2102.2185,0.004046
2104.0822,0.004306
2105.9459,0.004693
2107.8095,0.004803
2109.6732,0.004605
2111.5369,0.004731
2113.4006,0.004399
2115.2642,0.003771
2117.1279,0.003899
2118.9916,0.003860
2120.8552,0.003598
2122.7189,0.003783
2124.5826,0.003915
2126.4462,0.003715
2128.3099,0.003006
2130.1736,0.002786
2132.0372,0.002891
2133.9009,0.003173
2135.7646,0.004271
2137.6282,0.004093
2139.4919,0.003720
2141.3556,0.004248
2143.2193,0.003893
2145.0829,0.003934
2146.9466,0.003707
2148.8103,0.003503
2150.6739,0.004072
2152.5376,0.003474
2154.4013,0.003142
2156.2649,0.004160
2158.1286,0.005121
2159.9923,0.006496
2161.8559,0.007962
2163.7196,0.007094
2165.5833,0.006019
2167.4470,0.007053
2169.3106,0.006770
2171.1743,0.005900
2173.0380,0.005834
2174.9016,0.005837
2176.7653,0.005882
2178.6290,0.006224
2180.4926,0.006434
2182.3563,0.006011
2184.2200,0.005811
2186.0836,0.005587
2187.9473,0.006114
2189.8110,0.007350
2191.6746,0.007932
2193.5383,0.007196
2195.4020,0.005816
2197.2657,0.005922
2199.1293,0.006799
2200.9930,0.005657
2202.8567,0.004299
2204.7203,0.004896
2206.5840,0.005710
2208.4477,0.005575
2210.3113,0.005429
2212.1750,0.005795
2214.0387,0.005613
2215.9023,0.004967
2217.7660,0.004471
2219.6297,0.004319
2221.4934,0.004971
2223.3570,0.005935
2225.2207,0.005824
2227.0844,0.005500
2228.9480,0.005406
2230.8117,0.004907
2232.6754,0.004826
2234.5390,0.004917
2236.4027,0.005017
2238.2664,0.005578
2240.1300,0.005637
2241.9937,0.004743
2243.8574,0.004289
2245.7210,0.004739
2247.5847,0.005404
2249.4484,0.005490
2251.3121,0.004899
2253.1757,0.004833
2255.0394,0.005407
2256.9031,0.005240
2258.7667,0.004870
2260.6304,0.005222
2262.4941,0.005380
2264.3577,0.005283
2266.2214,0.005487
2268.0851,0.005574
2269.9487,0.005377
2271.8124,0.005173
2273.6761,0.004892
2275.5397,0.004738
2277.4034,0.005087
2279.2671,0.005434
2281.1308,0.005018
2282.9944,0.004653
2284.8581,0.005096
2286.7218,0.005344
2288.5854,0.005227
2290.4491,0.005303
2292.3128,0.005125
2294.1764,0.004824
2296.0401,0.004554
2297.9038,0.004198
2299.7674,0.004508
2301.6311,0.004976
2303.4948,0.004755
2305.3585,0.004410
2307.2221,0.004284
2309.0858,0.004216
2310.9495,0.004103
2312.8131,0.004099
2314.6768,0.004439
2316.5405,0.004928
2318.4041,0.005160
2320.2678,0.005344
2322.1315,0.005620
2323.9951,0.005523
2325.8588,0.004717
2327.7225,0.004124
2329.5861,0.003704
2331.4498,0.003527
2333.3135,0.004165
2335.1772,0.004472
2337.0408,0.004331
2338.9045,0.004404
2340.7682,0.004644
2342.6318,0.004808
2344.4955,0.004734
2346.3592,0.004094
2348.2228,0.003093
2350.0865,0.002707
2351.9502,0.002894
2353.8138,0.003336
2355.6775,0.004431
2357.5412,0.005283
2359.4049,0.004955
2361.2685,0.004342
2363.1322,0.004552
2364.9959,0.005372
2366.8595,0.005620
2368.7232,0.005113
2370.5869,0.004702
2372.4505,0.004946
2374.3142,0.005001
2376.1779,0.004890
2378.0415,0.004715
2379.9052,0.004559
2381.7689,0.004399
2383.6325,0.004021
2385.4962,0.003609
2387.3599,0.003607
2389.2236,0.003846
2391.0872,0.004221
2392.9509,0.004435
2394.8146,0.004277
2396.6782,0.004293
2398.5419,0.004239
2400.4056,0.004034
2402.2692,0.004174
2404.1329,0.004452
2405.9966,0.004347
2407.8602,0.004152
2409.7239,0.004237
2411.5876,0.004554
2413.4512,0.004898
2415.3149,0.004865
2417.1786,0.004769
2419.0423,0.005135
2420.9059,0.005361
2422.7696,0.005164
2424.6333,0.004816
2426.4969,0.004758
2428.3606,0.005105
2430.2243,0.005182
2432.0879,0.004828
2433.9516,0.004621
2435.8153,0.004900
2437.6789,0.005277
2439.5426,0.005596
2441.4063,0.005883
2443.2700,0.006014
2445.1336,0.005888
2446.9973,0.005776
2448.8610,0.005818
2450.7246,0.005648
2452.5883,0.005763
2454.4520,0.006021
2456.3156,0.005802
2458.1793,0.005585
2460.0430,0.005618
2461.9066,0.005563
2463.7703,0.005625
2465.6340,0.005804
2467.4976,0.005734
2469.3613,0.005737
2471.2250,0.005869
2473.0887,0.005986
2474.9523,0.006004
2476.8160,0.005941
2478.6797,0.006201
2480.5433,0.006678
2482.4070,0.006495
2484.2707,0.006080
2486.1343,0.006458
2487.9980,0.006775
2489.8617,0.006584
2491.7253,0.006549
2493.5890,0.006502
2495.4527,0.006335
2497.3164,0.006426
2499.1800,0.006925
2501.0437,0.007143
2502.9074,0.006796
2504.7710,0.006615
2506.6347,0.006683
2508.4984,0.006632
2510.3620,0.006655
2512.2257,0.007013
2514.0894,0.007168
2515.9530,0.006912
2517.8167,0.006970
2519.6804,0.007231
2521.5440,0.007285
2523.4077,0.007172
2525.2714,0.007218
2527.1351,0.007353
2528.9987,0.007273
2530.8624,0.007247
2532.7261,0.007338
2534.5897,0.007540
2536.4534,0.007804
2538.3171,0.008082
2540.1807,0.007942
2542.0444,0.007724
2543.9081,0.007686
2545.7717,0.007638
2547.6354,0.007600
2549.4991,0.007886
2551.3627,0.008154
2553.2264,0.007956
2555.0901,0.007724
2556.9538,0.007988
2558.8174,0.008432
2560.6811,0.008516
2562.5448,0.008445
2564.4084,0.008640
2566.2721,0.008542
2568.1358,0.008285
2569.9994,0.008740
2571.8631,0.008993
2573.7268,0.008452
2575.5904,0.008360
2577.4541,0.008836
2579.3178,0.008993
2581.1815,0.008956
2583.0451,0.008851
2584.9088,0.008849
2586.7725,0.009053
2588.6361,0.009135
2590.4998,0.009503
2592.3635,0.009843
2594.2271,0.009688
2596.0908,0.009401
2597.9545,0.009605
2599.8181,0.010017
2601.6818,0.010000
2603.5455,0.010017
2605.4091,0.010300
2607.2728,0.010454
2609.1365,0.010489
2611.0002,0.010582
2612.8638,0.010436
2614.7275,0.010387
2616.5912,0.010687
2618.4548,0.010791
2620.3185,0.010781
2622.1822,0.010823
2624.0458,0.011000
2625.9095,0.011138
2627.7732,0.011153
2629.6368,0.011333
2631.5005,0.011394
2633.3642,0.011587
2635.2279,0.011871
2637.0915,0.011885
2638.9552,0.011818
2640.8189,0.011953
2642.6825,0.012007
2644.5462,0.012002
2646.4099,0.012036
2648.2735,0.012020
2650.1372,0.012187
2652.0009,0.012362
2653.8645,0.012417
2655.7282,0.012557
2657.5919,0.012518
2659.4555,0.012318
2661.3192,0.012145
2663.1829,0.012083
2665.0466,0.012116
2666.9102,0.012347
2668.7739,0.012444
2670.6376,0.012379
2672.5012,0.012640
2674.3649,0.012864
2676.2286,0.012793
2678.0922,0.012778
2679.9559,0.012772
2681.8196,0.012802
2683.6832,0.012948
2685.5469,0.013180
2687.4106,0.013422
2689.2742,0.013559
2691.1379,0.013511
2693.0016,0.013620
2694.8653,0.013713
2696.7289,0.013741
2698.5926,0.013871
2700.4563,0.013903
2702.3199,0.014005
2704.1836,0.014200
2706.0473,0.014276
2707.9109,0.014388
2709.7746,0.014580
2711.6383,0.014650
2713.5019,0.014727
2715.3656,0.014919
2717.2293,0.015079
2719.0930,0.015238
2720.9566,0.015397
2722.8203,0.015557
2724.6840,0.015710
2726.5476,0.015887
2728.4113,0.016102
2730.2750,0.016069
2732.1386,0.016163
2734.0023,0.016302
2735.8660,0.016293
2737.7296,0.016390
2739.5933,0.016652
2741.4570,0.016812
2743.3206,0.016876
2745.1843,0.017155
2747.0480,0.017332
2748.9117,0.017491
2750.7753,0.017664
2752.6390,0.018021
2754.5027,0.018346
2756.3663,0.018241
2758.2300,0.018279
2760.0937,0.018672
2761.9573,0.018930
2763.8210,0.018992
2765.6847,0.019000
2767.5483,0.019064
2769.4120,0.019409
2771.2757,0.019685
2773.1394,0.019665
2775.0030,0.019564
2776.8667,0.019883
2778.7304,0.020157
2780.5940,0.020266
2782.4577,0.020429
2784.3214,0.020851
2786.1850,0.021067
2788.0487,0.021163
2789.9124,0.021299
2791.7760,0.021347
2793.6397,0.021481
2795.5034,0.021866
2797.3670,0.022141
2799.2307,0.022262
2801.0944,0.022321
2802.9581,0.022576
2804.8217,0.023004
2806.6854,0.023388
2808.5491,0.023567
2810.4127,0.023472
2812.2764,0.023713
2814.1401,0.024005
2816.0037,0.024101
2817.8674,0.024348
2819.7311,0.024624
2821.5947,0.024849
2823.4584,0.025329
2825.3221,0.025641
2827.1857,0.025697
2829.0494,0.026031
2830.9131,0.026546
2832.7768,0.026957
2834.6404,0.027068
2836.5041,0.027284
2838.3678,0.027814
2840.2314,0.028464
2842.0951,0.029150
2843.9588,0.029579
2845.8224,0.030126
2847.6861,0.030918
2849.5498,0.031495
2851.4134,0.031775
2853.2771,0.031965
2855.1408,0.032301
2857.0045,0.032579
2858.8681,0.032748
2860.7318,0.033027
2862.5955,0.033332
2864.4591,0.033547
2866.3228,0.034117
2868.1865,0.034740
2870.0501,0.035175
2871.9138,0.035457
2873.7775,0.035633
2875.6411,0.035739
2877.5048,0.035844
2879.3685,0.035679
2881.2321,0.035410
2883.0958,0.035260
2884.9595,0.035441
2886.8232,0.035691
2888.6868,0.035743
2890.5505,0.035817
2892.4142,0.036077
2894.2778,0.036432
2896.1415,0.036673
2898.0052,0.036659
2899.8688,0.036940
2901.7325,0.037356
2903.5962,0.037875
2905.4598,0.038373
2907.3235,0.038579
2909.1872,0.038928
2911.0509,0.039496
2912.9145,0.040101
2914.7782,0.040768
2916.6419,0.041216
2918.5055,0.041634
2920.3692,0.042225
2922.2329,0.042520
2924.0965,0.042481
2925.9602,0.042809
2927.8239,0.043146
2929.6875,0.042862
2931.5512,0.042381
2933.4149,0.042269
2935.2785,0.042021
2937.1422,0.041715
2939.0059,0.041757
2940.8696,0.041548
2942.7332,0.040799
2944.5969,0.040381
2946.4606,0.040211
2948.3242,0.040294
2950.1879,0.040519
2952.0516,0.040634
2953.9152,0.040682
2955.7789,0.041071
2957.6426,0.041067
2959.5062,0.040615
2961.3699,0.040251
2963.2336,0.040122
2965.0972,0.039941
2966.9609,0.039522
2968.8246,0.039023
2970.6883,0.038891
2972.5519,0.038408
2974.4156,0.037868
2976.2793,0.037560
2978.1429,0.037238
2980.0066,0.036750
2981.8703,0.036162
2983.7339,0.035689
2985.5976,0.035407
2987.4613,0.035182
2989.3249,0.035171
2991.1886,0.035037
2993.0523,0.034663
2994.9160,0.034721
2996.7796,0.034675
2998.6433,0.034240
3000.5070,0.034278
3002.3706,0.034673
3004.2343,0.034840
3006.0980,0.034959
3007.9616,0.035196
3009.8253,0.035399
3011.6890,0.035776
3013.5526,0.036099
3015.4163,0.036405
3017.2800,0.036470
3019.1436,0.036774
3021.0073,0.037076
3022.8710,0.037316
3024.7347,0.037778
3026.5983,0.038187
3028.4620,0.038677
3030.3257,0.038971
3032.1893,0.039156
3034.0530,0.039410
3035.9167,0.039783
3037.7803,0.040508
3039.6440,0.040845
3041.5077,0.041161
3043.3713,0.041302
3045.2350,0.041618
3047.0987,0.042013
3048.9624,0.042511
3050.8260,0.042877
3052.6897,0.043070
3054.5534,0.043240
3056.4170,0.043670
3058.2807,0.044396
3060.1444,0.044796
3062.0080,0.044699
3063.8717,0.044640
3065.7354,0.044813
3067.5990,0.045567
3069.4627,0.045593
3071.3264,0.045149
3073.1900,0.045242
3075.0537,0.045697
3076.9174,0.045971
3078.7811,0.046219
3080.6447,0.046369
3082.5084,0.046496
3084.3721,0.046195
3086.2357,0.045908
3088.0994,0.046186
3089.9631,0.046119
3091.8267,0.045617
3093.6904,0.045884
3095.5541,0.046290
3097.4177,0.046368
3099.2814,0.046594
3101.1451,0.046648
3103.0087,0.046406
3104.8724,0.046357
3106.7361,0.046730
3108.5998,0.047407
3110.4634,0.047455
3112.3271,0.047398
3114.1908,0.047409
3116.0544,0.047376
3117.9181,0.047428
3119.7818,0.047829
3121.6454,0.047969
3123.5091,0.048024
3125.3728,0.048814
3127.2364,0.049377
3129.1001,0.049422
3130.9638,0.049698
3132.8275,0.049912
3134.6911,0.050311
3136.5548,0.050870
3138.4185,0.051359
3140.2821,0.051681
3142.1458,0.052034
3144.0095,0.052594
3145.8731,0.052917
3147.7368,0.053168
3149.6005,0.053781
3151.4641,0.054302
3153.3278,0.054615
3155.1915,0.054896
3157.0551,0.055695
3158.9188,0.056183
3160.7825,0.056391
3162.6462,0.056907
3164.5098,0.057445
3166.3735,0.057941
3168.2372,0.058569
3170.1008,0.058841
3171.9645,0.059161
3173.8282,0.059664
3175.6918,0.060340
3177.5555,0.060754
3179.4192,0.061145
3181.2828,0.061500
3183.1465,0.061675
3185.0102,0.061837
3186.8739,0.062436
3188.7375,0.062827
3190.6012,0.063443
3192.4649,0.063634
3194.3285,0.063678
3196.1922,0.063904
3198.0559,0.064531
3199.9195,0.064801
3201.7832,0.065172
3203.6469,0.065298
3205.5105,0.065593
3207.3742,0.066032
3209.2379,0.066213
3211.1015,0.066391
3212.9652,0.066978
3214.8289,0.066862
3216.6926,0.067037
3218.5562,0.067573
3220.4199,0.067746
3222.2836,0.067519
3224.1472,0.068007
3226.0109,0.068052
3227.8746,0.067998
3229.7382,0.068369
3231.6019,0.068832
3233.4656,0.068810
3235.3292,0.069149
3237.1929,0.069478
3239.0566,0.069797
3240.9202,0.069795
3242.7839,0.070044
3244.6476,0.069989
3246.5113,0.070581
3248.3749,0.071315
3250.2386,0.071308
3252.1023,0.071491
3253.9659,0.072028
3255.8296,0.071774
3257.6933,0.071964
3259.5569,0.072283
3261.4206,0.072662
3263.2843,0.072424
3265.1479,0.072566
3267.0116,0.073225
3268.8753,0.073448
3270.7390,0.073415
3272.6026,0.073065
3274.4663,0.072616
3276.3300,0.073131
3278.1936,0.073280
3280.0573,0.072672
3281.9210,0.071853
3283.7846,0.071768
3285.6483,0.071928
3287.5120,0.071865
3289.3756,0.071558
3291.2393,0.071285
3293.1030,0.070876
3294.9666,0.070492
3296.8303,0.069843
3298.6940,0.069536
3300.5577,0.069470
3302.4213,0.069258
3304.2850,0.068651
3306.1487,0.068177
3308.0123,0.067674
3309.8760,0.067162
3311.7397,0.066609
3313.6033,0.066256
3315.4670,0.065925
3317.3307,0.065870
3319.1943,0.065785
3321.0580,0.065786
3322.9217,0.065302
3324.7854,0.064415
3326.6490,0.063813
3328.5127,0.063724
3330.3764,0.063642
3332.2400,0.063410
3334.1037,0.062819
3335.9674,0.062754
3337.8310,0.062879
3339.6947,0.062692
3341.5584,0.062079
3343.4220,0.061520
3345.2857,0.061359
3347.1494,0.061092
3349.0130,0.060580
3350.8767,0.060535
3352.7404,0.060121
3354.6041,0.059680
3356.4677,0.059640
3358.3314,0.059721
3360.1951,0.059429
3362.0587,0.059289
3363.9224,0.059363
3365.7861,0.059269
3367.6497,0.058421
3369.5134,0.058447
3371.3771,0.058487
3373.2407,0.057812
3375.1044,0.057202
3376.9681,0.057120
3378.8317,0.057027
3380.6954,0.056801
3382.5591,0.056398
3384.4228,0.056068
3386.2864,0.056015
3388.1501,0.055995
3390.0138,0.055816
3391.8774,0.055605
3393.7411,0.054963
3395.6048,0.054508
3397.4684,0.054011
3399.3321,0.053772
3401.1958,0.053799
3403.0594,0.053382
3404.9231,0.053032
3406.7868,0.052822
3408.6505,0.052525
3410.5141,0.052651
3412.3778,0.052237
3414.2415,0.051487
3416.1051,0.051271
3417.9688,0.050972
3419.8325,0.050946
3421.6961,0.051311
3423.5598,0.050778
3425.4235,0.049820
3427.2871,0.049144
3429.1508,0.048874
3431.0145,0.048211
3432.8781,0.047736
3434.7418,0.047284
3436.6055,0.047184
3438.4692,0.047225
3440.3328,0.046639
3442.1965,0.045857
3444.0602,0.045840
3445.9238,0.045597
3447.7875,0.045384
3449.6512,0.045204
3451.5148,0.044517
3453.3785,0.044207
3455.2422,0.044028
3457.1058,0.042866
3458.9695,0.042593
3460.8332,0.042929
3462.6969,0.042838
3464.5605,0.041839
3466.4242,0.040516
3468.2879,0.040108
3470.1515,0.040021
3472.0152,0.039897
3473.8789,0.039731
3475.7425,0.039335
3477.6062,0.038769
3479.4699,0.038199
3481.3335,0.038432
3483.1972,0.038235
3485.0609,0.037100
3486.9245,0.036502
3488.7882,0.036171
3490.6519,0.035276
3492.5156,0.035382
3494.3792,0.035377
3496.2429,0.034177
3498.1066,0.033363
3499.9702,0.033477
3501.8339,0.033160
3503.6976,0.032603
3505.5612,0.032657
3507.4249,0.032278
3509.2886,0.031902
3511.1522,0.031150
3513.0159,0.029764
3514.8796,0.029253
3516.7432,0.029503
3518.6069,0.029188
3520.4706,0.028321
3522.3343,0.027922
3524.1979,0.027861
3526.0616,0.027675
3527.9253,0.026973
3529.7889,0.025821
3531.6526,0.025023
3533.5163,0.025031
3535.3799,0.024926
3537.2436,0.024401
3539.1073,0.023520
3540.9709,0.023055
3542.8346,0.022723
3544.6983,0.021865
3546.5620,0.021693
3548.4256,0.021902
3550.2893,0.020667
3552.1530,0.019722
3554.0166,0.019982
3555.8803,0.019488
3557.7440,0.018500
3559.6076,0.017611
3561.4713,0.017032
3563.3350,0.017076
3565.1986,0.017447
3567.0623,0.017053
3568.9260,0.015346
3570.7896,0.013900
3572.6533,0.013448
3574.5170,0.013370
3576.3807,0.013325
3578.2443,0.013244
3580.1080,0.013097
3581.9717,0.012551
3583.8353,0.012180
3585.6990,0.011887
3587.5627,0.011013
3589.4263,0.009944
3591.2900,0.009580
3593.1537,0.009385
3595.0173,0.009118
3596.8810,0.008612
3598.7447,0.007438
3600.6084,0.006927
3602.4720,0.006969
3604.3357,0.006437
3606.1994,0.005855
3608.0630,0.005350
3609.9267,0.004649
3611.7904,0.004286
3613.6540,0.004475
3615.5177,0.004360
3617.3814,0.003716
3619.2450,0.003121
3621.1087,0.002566
3622.9724,0.002333
3624.8360,0.002249
3626.6997,0.002075
3628.5634,0.001176
3630.4271,0.000334
3632.2907,0.000311
3634.1544,-0.000244
3636.0181,-0.000810
3637.8817,-0.000901
3639.7454,-0.000913
3641.6091,-0.001245
3643.4727,-0.001717
3645.3364,-0.002004
3647.2001,-0.002340
3649.0637,-0.003156
3650.9274,-0.003811
3652.7911,-0.003594
3654.6547,-0.003690
3656.5184,-0.004479
3658.3821,-0.004846
3660.2458,-0.004947
3662.1094,-0.005362
3663.9731,-0.005574
3665.8368,-0.005367
3667.7004,-0.005319
3669.5641,-0.005794
3671.4278,-0.006311
3673.2914,-0.006201
3675.1551,-0.006395
3677.0188,-0.006954
3678.8824,-0.007107
3680.7461,-0.006964
3682.6098,-0.006781
3684.4735,-0.006887
3686.3371,-0.007105
3688.2008,-0.007259
3690.0645,-0.007668
3691.9281,-0.007932
3693.7918,-0.007697
3695.6555,-0.007584
3697.5191,-0.007614
3699.3828,-0.007500
3701.2465,-0.007349
3703.1101,-0.007501
3704.9738,-0.007835
3706.8375,-0.007715
3708.7011,-0.007702
3710.5648,-0.008336
3712.4285,-0.009012
3714.2922,-0.008440
3716.1558,-0.007629
3718.0195,-0.007755
3719.8832,-0.008035
3721.7468,-0.008126
3723.6105,-0.008231
3725.4742,-0.008102
3727.3378,-0.008168
3729.2015,-0.008284
3731.0652,-0.008182
3732.9288,-0.008234
3734.7925,-0.008383
3736.6562,-0.008580
3738.5199,-0.008119
3740.3835,-0.007578
3742.2472,-0.007740
3744.1109,-0.008339
3745.9745,-0.008747
3747.8382,-0.008261
3749.7019,-0.008256
3751.5655,-0.008817
3753.4292,-0.008827
3755.2929,-0.008296
3757.1565,-0.007895
3759.0202,-0.007862
3760.8839,-0.007872
3762.7475,-0.007746
3764.6112,-0.007710
3766.4749,-0.007859
3768.3386,-0.008051
3770.2022,-0.008127
3772.0659,-0.007910
3773.9296,-0.007805
3775.7932,-0.007777
3777.6569,-0.007856
3779.5206,-0.008048
3781.3842,-0.007996
3783.2479,-0.007790
3785.1116,-0.007714
3786.9752,-0.007570
3788.8389,-0.007640
3790.7026,-0.007943
3792.5662,-0.007991
3794.4299,-0.007870
3796.2936,-0.007732
3798.1573,-0.007664
3800.0209,-0.007749
3801.8846,-0.007915
3803.7483,-0.007960
3805.6119,-0.007786
3807.4756,-0.007867
3809.3393,-0.007816
3811.2029,-0.007550
3813.0666,-0.007574
3814.9303,-0.007727
3816.7939,-0.007805
3818.6576,-0.007921
3820.5213,-0.008471
3822.3850,-0.008699
3824.2486,-0.007844
3826.1123,-0.007499
3827.9760,-0.007823
3829.8396,-0.007916
3831.7033,-0.007870
3833.5670,-0.008042
3835.4306,-0.008091
3837.2943,-0.008138
3839.1580,-0.008125
3841.0216,-0.008027
3842.8853,-0.007974
3844.7490,-0.007777
3846.6126,-0.007371
3848.4763,-0.007312
3850.3400,-0.007773
3852.2037,-0.008017
3854.0673,-0.008343
3855.9310,-0.008351
3857.7947,-0.007855
3859.6583,-0.007722
3861.5220,-0.007678
3863.3857,-0.007954
3865.2493,-0.008037
3867.1130,-0.007764
3868.9767,-0.007829
3870.8403,-0.008091
3872.7040,-0.007655
3874.5677,-0.007665
3876.4314,-0.007869
3878.2950,-0.007554
3880.1587,-0.007684
3882.0224,-0.007695
3883.8860,-0.007374
3885.7497,-0.007705
3887.6134,-0.007610
3889.4770,-0.007463
3891.3407,-0.007885
3893.2044,-0.007869
3895.0680,-0.007522
3896.9317,-0.007355
3898.7954,-0.007382
3900.6590,-0.007419
3902.5227,-0.007320
3904.3864,-0.007646
3906.2501,-0.008069
3908.1137,-0.007942
3909.9774,-0.007596
3911.8411,-0.007241
3913.7047,-0.007151
3915.5684,-0.007474
3917.4321,-0.007516
3919.2957,-0.007345
3921.1594,-0.007377
3923.0231,-0.007249
3924.8867,-0.007208
3926.7504,-0.007416
3928.6141,-0.007548
3930.4777,-0.007461
3932.3414,-0.007314
3934.2051,-0.007400
3936.0688,-0.007125
3937.9324,-0.007038
3939.7961,-0.007176
3941.6598,-0.007310
3943.5234,-0.007454
3945.3871,-0.007319
3947.2508,-0.007251
3949.1144,-0.007154
3950.9781,-0.007207
3952.8418,-0.007434
3954.7054,-0.007072
3956.5691,-0.007317
3958.4328,-0.007833
3960.2965,-0.007450
3962.1601,-0.007230
3964.0238,-0.007588
3965.8875,-0.007526
3967.7511,-0.007348
3969.6148,-0.007410
3971.4785,-0.007266
3973.3421,-0.007000
3975.2058,-0.007085
3977.0695,-0.007096
3978.9331,-0.006760
3980.7968,-0.006658
3982.6605,-0.007043
3984.5241,-0.007109
3986.3878,-0.007124
3988.2515,-0.007495
3990.1152,-0.007639
3991.9788,-0.007111
3993.8425,-0.006762
3995.7062,-0.006944
3997.5698,-0.007343
3999.4335,-0.007234
