Wavenumber,Intensity
650.4205,0.179230
652.2841,0.176384
654.1478,0.175661
656.0115,0.173156
657.8751,0.169052
659.7388,0.168364
661.6025,0.168608
663.4661,0.167871
665.3298,0.167677
667.1935,0.168840
669.0571,0.170293
670.9208,0.166106
672.7845,0.162805
674.6481,0.162566
676.5118,0.161447
678.3755,0.159969
680.2392,0.159026
682.1028,0.158253
683.9665,0.156705
685.8302,0.155766
687.6938,0.155175
689.5575,0.154328
691.4212,0.153424
693.2848,0.153298
695.1485,0.153469
697.0122,0.152564
698.8758,0.151410
700.7395,0.150296
702.6032,0.147968
704.4669,0.145722
706.3305,0.143884
708.1942,0.142262
710.0579,0.141169
711.9215,0.140628
713.7852,0.139531
715.6489,0.138142
717.5125,0.136125
719.3762,0.134242
721.2399,0.132907
723.1035,0.131664
724.9672,0.130139
726.8309,0.128617
728.6945,0.127667
730.5582,0.127507
732.4219,0.126522
734.2856,0.124573
736.1492,0.123323
738.0129,0.123509
739.8766,0.123204
741.7402,0.121918
743.6039,0.121238
745.4676,0.120435
747.3312,0.118504
749.1949,0.117322
751.0586,0.116483
752.9222,0.115008
754.7859,0.113801
756.6496,0.112926
758.5132,0.111713
760.3769,0.110711
762.2406,0.109706
764.1043,0.109305
765.9679,0.108924
767.8316,0.107826
769.6953,0.106919
771.5589,0.106103
773.4226,0.105185
775.2863,0.104636
777.1499,0.103918
779.0136,0.102961
780.8773,0.102233
782.7409,0.101238
784.6046,0.099753
786.4683,0.098599
788.3320,0.097383
790.1956,0.096511
792.0593,0.096028
793.9230,0.095079
795.7866,0.094188
797.6503,0.093954
799.5140,0.093500
801.3776,0.092494
803.2413,0.091543
805.1050,0.091255
806.9686,0.090715
808.8323,0.089623
810.6960,0.088589
812.5596,0.087724
814.4233,0.087198
816.2870,0.086845
818.1507,0.085939
820.0143,0.085138
821.8780,0.084473
823.7417,0.083789
825.6053,0.083305
827.4690,0.082697
829.3327,0.081718
831.1963,0.081083
833.0600,0.080617
834.9237,0.079787
836.7873,0.078641
838.6510,0.077869
840.5147,0.077222
842.3784,0.076285
844.2420,0.075452
846.1057,0.074787
847.9694,0.074241
849.8330,0.073889
851.6967,0.073502
853.5604,0.073185
855.4240,0.072698
857.2877,0.072228
859.1514,0.072049
861.0150,0.071769
862.8787,0.071311
864.7424,0.071042
866.6060,0.071055
868.4697,0.071223
870.3334,0.071149
872.1971,0.071075
874.0607,0.070952
875.9244,0.070364
877.7881,0.069779
879.6517,0.069769
881.5154,0.069580
883.3791,0.069098
885.2427,0.068633
887.1064,0.068202
888.9701,0.067833
890.8337,0.067726
892.6974,0.067798
894.5611,0.067677
896.4247,0.067238
898.2884,0.066743
900.1521,0.066201
902.0158,0.065699
903.8794,0.065515
905.7431,0.065499
907.6068,0.065456
909.4704,0.065570
911.3341,0.065747
913.1978,0.066062
915.0614,0.066397
916.9251,0.066751
918.7888,0.067305
920.6524,0.067796
922.5161,0.067976
924.3798,0.068109
926.2435,0.068092
928.1071,0.067855
929.9708,0.067775
931.8345,0.068024
933.6981,0.068036
935.5618,0.067999
937.4255,0.068088
939.2891,0.068096
941.1528,0.068135
943.0165,0.068319
944.8801,0.068790
946.7438,0.069454
948.6075,0.069904
950.4711,0.070344
952.3348,0.070998
954.1985,0.071805
956.0622,0.072858
957.9258,0.074310
959.7895,0.075823
961.6532,0.077479
963.5168,0.079104
965.3805,0.080624
967.2442,0.081962
969.1078,0.083028
970.9715,0.083778
972.8352,0.084316
974.6988,0.084760
976.5625,0.085195
978.4262,0.085781
980.2899,0.086579
982.1535,0.087433
984.0172,0.088457
985.8809,0.089678
987.7445,0.090788
989.6082,0.091944
991.4719,0.093340
993.3355,0.094653
995.1992,0.095865
997.0629,0.097168
998.9265,0.098374
1000.7902,0.099481
1002.6539,0.100839
1004.5175,0.102446
1006.3812,0.104322
1008.2449,0.106474
1010.1086,0.108736
1011.9722,0.111035
1013.8359,0.113541
1015.6996,0.116103
1017.5632,0.118519
1019.4269,0.120826
1021.2906,0.122898
1023.1542,0.124605
1025.0179,0.126120
1026.8816,0.127553
1028.7452,0.128830
1030.6089,0.130057
1032.4726,0.131196
1034.3362,0.132126
1036.1999,0.133052
1038.0636,0.134022
1039.9273,0.134884
1041.7909,0.135710
1043.6546,0.136607
1045.5183,0.137542
1047.3819,0.138290
1049.2456,0.138995
1051.1093,0.139793
1052.9729,0.140456
1054.8366,0.140759
1056.7003,0.140825
1058.5639,0.140773
1060.4276,0.140698
1062.2913,0.140601
1064.1550,0.140701
1066.0186,0.141055
1067.8823,0.141427
1069.7460,0.141685
1071.6096,0.141739
1073.4733,0.141596
1075.3370,0.141235
1077.2006,0.140506
1079.0643,0.139178
1080.9280,0.137427
1082.7916,0.135337
1084.6553,0.132749
1086.5190,0.129981
1088.3826,0.127346
1090.2463,0.124744
1092.1100,0.122332
1093.9737,0.120103
1095.8373,0.117957
1097.7010,0.116012
1099.5647,0.114292
1101.4283,0.112743
1103.2920,0.111348
1105.1557,0.110081
1107.0193,0.108979
1108.8830,0.108033
1110.7467,0.107271
1112.6103,0.106670
1114.4740,0.105915
1116.3377,0.104974
1118.2014,0.103884
1120.0650,0.102744
1121.9287,0.101559
1123.7924,0.100303
1125.6560,0.099034
1127.5197,0.097610
1129.3834,0.096049
1131.2470,0.094467
1133.1107,0.092902
1134.9744,0.091420
1136.8380,0.090155
1138.7017,0.089126
1140.5654,0.088288
1142.4290,0.087733
1144.2927,0.087566
1146.1564,0.087627
1148.0201,0.087798
1149.8837,0.088086
1151.7474,0.088405
1153.6111,0.088657
1155.4747,0.088814
1157.3384,0.088744
1159.2021,0.088453
1161.0657,0.087998
1162.9294,0.087426
1164.7931,0.086633
1166.6567,0.085621
1168.5204,0.084502
1170.3841,0.083338
1172.2477,0.082055
1174.1114,0.080666
1175.9751,0.079145
1177.8388,0.077803
1179.7024,0.076949
1181.5661,0.076723
1183.4298,0.076925
1185.2934,0.077479
1187.1571,0.078270
1189.0208,0.079199
1190.8844,0.080232
1192.7481,0.081399
1194.6118,0.082688
1196.4754,0.084247
1198.3391,0.085998
1200.2028,0.087884
1202.0665,0.089742
1203.9301,0.091374
1205.7938,0.092817
1207.6575,0.094068
1209.5211,0.095043
1211.3848,0.095990
1213.2485,0.097128
1215.1121,0.098295
1216.9758,0.099755
1218.8395,0.101373
1220.7031,0.102911
1222.5668,0.104714
1224.4305,0.106466
1226.2941,0.108072
1228.1578,0.109651
1230.0215,0.110993
1231.8852,0.111974
1233.7488,0.112638
1235.6125,0.113200
1237.4762,0.113626
1239.3398,0.113666
1241.2035,0.113210
1243.0672,0.112364
1244.9308,0.111257
1246.7945,0.109941
1248.6582,0.108397
1250.5218,0.106804
1252.3855,0.105335
1254.2492,0.103856
1256.1129,0.102453
1257.9765,0.101259
1259.8402,0.100171
1261.7039,0.099214
1263.5675,0.098467
1265.4312,0.097897
1267.2949,0.097274
1269.1585,0.096722
1271.0222,0.096191
1272.8859,0.095650
1274.7495,0.095319
1276.6132,0.095046
1278.4769,0.094731
1280.3405,0.094547
1282.2042,0.094340
1284.0679,0.094100
1285.9316,0.093979
1287.7952,0.093961
1289.6589,0.093875
1291.5226,0.093825
1293.3862,0.093953
1295.2499,0.094225
1297.1136,0.094581
1298.9772,0.094937
1300.8409,0.095481
1302.7046,0.095935
1304.5682,0.096310
1306.4319,0.096735
1308.2956,0.097176
1310.1592,0.097562
1312.0229,0.097998
1313.8866,0.098134
1315.7503,0.097890
1317.6139,0.097637
1319.4776,0.097221
1321.3413,0.096452
1323.2049,0.095672
1325.0686,0.095133
1326.9323,0.094801
1328.7959,0.094613
1330.6596,0.094531
1332.5233,0.094332
1334.3869,0.094045
1336.2506,0.094169
1338.1143,0.094974
1339.9780,0.095628
1341.8416,0.094922
1343.7053,0.093947
1345.5690,0.093462
1347.4326,0.093210
1349.2963,0.093106
1351.1600,0.092934
1353.0236,0.092976
1354.8873,0.093256
1356.7510,0.093397
1358.6146,0.093564
1360.4783,0.094777
1362.3420,0.097717
1364.2056,0.099738
1366.0693,0.100442
1367.9330,0.101899
1369.7967,0.103205
1371.6603,0.104458
1373.5240,0.107545
1375.3877,0.110371
1377.2513,0.111558
1379.1150,0.113117
1380.9787,0.114543
1382.8423,0.115504
1384.7060,0.116488
1386.5697,0.119177
1388.4333,0.121027
1390.2970,0.120028
1392.1607,0.119802
1394.0244,0.121905
1395.8880,0.123580
1397.7517,0.123959
1399.6154,0.124353
1401.4790,0.122702
1403.3427,0.121631
1405.2064,0.121496
1407.0700,0.119895
1408.9337,0.118074
1410.7974,0.116916
1412.6610,0.114992
1414.5247,0.112570
1416.3884,0.111413
1418.2520,0.113131
1420.1157,0.113584
1421.9794,0.111045
1423.8431,0.110305
1425.7067,0.109745
1427.5704,0.109602
1429.4341,0.111664
1431.2977,0.113342
1433.1614,0.113905
1435.0251,0.117384
1436.8887,0.124317
1438.7524,0.125235
1440.6161,0.124260
1442.4797,0.124885
1444.3434,0.125183
1446.2071,0.126190
1448.0707,0.127819
1449.9344,0.126749
1451.7981,0.124040
1453.6618,0.121394
1455.5254,0.122163
1457.3891,0.125845
1459.2528,0.120937
1461.1164,0.114710
1462.9801,0.112269
1464.8438,0.112694
1466.7074,0.109906
1468.5711,0.105273
1470.4348,0.102631
1472.2984,0.103468
1474.1621,0.102543
1476.0258,0.100351
1477.8895,0.098445
1479.7531,0.097518
1481.6168,0.098078
1483.4805,0.098339
1485.3441,0.099528
1487.2078,0.104043
1489.0715,0.111489
1490.9351,0.116645
1492.7988,0.116754
1494.6625,0.119870
1496.5261,0.129252
1498.3898,0.136488
1500.2535,0.138382
1502.1171,0.138149
1503.9808,0.140234
1505.8445,0.154611
1507.7082,0.171528
1509.5718,0.170285
1511.4355,0.170088
1513.2992,0.172087
1515.1628,0.174532
1517.0265,0.177511
1518.8902,0.178183
1520.7538,0.182123
1522.6175,0.186398
1524.4812,0.186133
1526.3448,0.187853
1528.2085,0.188304
1530.0722,0.187262
1531.9359,0.188154
1533.7995,0.190819
1535.6632,0.187730
1537.5269,0.184801
1539.3905,0.188867
1541.2542,0.192655
1543.1179,0.189182
1544.9815,0.184898
1546.8452,0.179445
1548.7089,0.174723
1550.5725,0.169972
1552.4362,0.164484
1554.2999,0.158611
1556.1635,0.153935
1558.0272,0.154820
1559.8909,0.154853
1561.7546,0.146533
1563.6182,0.140486
1565.4819,0.136182
1567.3456,0.133194
1569.2092,0.132316
1571.0729,0.129449
1572.9366,0.124960
1574.8002,0.124287
1576.6639,0.125569
1578.5276,0.123054
1580.3912,0.120577
1582.2549,0.119953
1584.1186,0.120015
1585.9822,0.120577
1587.8459,0.121743
1589.7096,0.123574
1591.5733,0.125861
1593.4369,0.128842
1595.3006,0.132499
1597.1643,0.136160
1599.0279,0.139956
1600.8916,0.144814
1602.7553,0.150111
1604.6189,0.155448
1606.4826,0.161274
1608.3463,0.167669
1610.2099,0.173154
1612.0736,0.177063
1613.9373,0.180832
1615.8010,0.188861
1617.6646,0.197282
1619.5283,0.198294
1621.3920,0.199934
1623.2556,0.205371
1625.1193,0.208350
1626.9830,0.209480
1628.8466,0.210305
1630.7103,0.208714
1632.5740,0.206439
1634.4376,0.207533
1636.3013,0.209862
1638.1650,0.206564
1640.0286,0.201616
1641.8923,0.197003
1643.7560,0.192668
1645.6197,0.190338
1647.4833,0.187893
1649.3470,0.182029
1651.2107,0.177036
1653.0743,0.176049
1654.9380,0.170579
1656.8017,0.162780
1658.6653,0.155679
1660.5290,0.149846
1662.3927,0.144456
1664.2563,0.138575
1666.1200,0.132514
1667.9837,0.127491
1669.8474,0.122972
1671.7110,0.117838
1673.5747,0.112611
1675.4384,0.107836
1677.3020,0.102177
1679.1657,0.096509
1681.0294,0.090870
1682.8930,0.086112
1684.7567,0.081419
1686.6204,0.075869
1688.4840,0.069982
1690.3477,0.064012
1692.2114,0.058146
1694.0750,0.052820
1695.9387,0.047584
1697.8024,0.043008
1699.6661,0.039271
1701.5297,0.035296
1703.3934,0.031683
1705.2571,0.029028
1707.1207,0.026825
1708.9844,0.024780
1710.8481,0.022823
1712.7117,0.021339
1714.5754,0.020256
1716.4391,0.019588
1718.3027,0.018909
1720.1664,0.017569
1722.0301,0.016130
1723.8937,0.015380
1725.7574,0.014526
1727.6211,0.013495
1729.4848,0.012764
1731.3484,0.012360
1733.2121,0.012116
1735.0758,0.012384
1736.9394,0.011688
1738.8031,0.011178
1740.6668,0.011014
1742.5304,0.010563
1744.3941,0.010105
1746.2578,0.009609
1748.1214,0.008993
1749.9851,0.008457
1751.8488,0.007709
1753.7125,0.006646
1755.5761,0.005642
1757.4398,0.005458
1759.3035,0.005130
1761.1671,0.004737
1763.0308,0.004602
1764.8945,0.004144
1766.7581,0.003762
1768.6218,0.003913
1770.4855,0.003663
1772.3491,0.003664
1774.2128,0.003785
1776.0765,0.003429
1777.9401,0.003005
1779.8038,0.003098
1781.6675,0.003193
1783.5312,0.002892
1785.3948,0.002655
1787.2585,0.002464
1789.1222,0.002346
1790.9858,0.002602
1792.8495,0.002872
1794.7132,0.002767
1796.5768,0.002313
1798.4405,0.001901
1800.3042,0.001868
1802.1678,0.002100
1804.0315,0.002065
1805.8952,0.001858
1807.7589,0.001805
1809.6225,0.001948
1811.4862,0.002081
1813.3499,0.001959
1815.2135,0.001588
1817.0772,0.001443
1818.9409,0.001436
1820.8045,0.001646
1822.6682,0.001471
1824.5319,0.001311
1826.3955,0.001797
1828.2592,0.001887
1830.1229,0.001724
1831.9865,0.001610
1833.8502,0.001425
1835.7139,0.001466
1837.5776,0.001466
1839.4412,0.001368
1841.3049,0.001237
1843.1686,0.001464
1845.0322,0.001825
1846.8959,0.001598
1848.7596,0.001268
1850.6232,0.001462
1852.4869,0.001736
1854.3506,0.001701
1856.2142,0.001534
1858.0779,0.001568
1859.9416,0.001618
1861.8052,0.001568
1863.6689,0.001419
1865.5326,0.001452
1867.3963,0.001830
1869.2599,0.002085
1871.1236,0.001931
1872.9873,0.001873
1874.8509,0.001968
1876.7146,0.001855
1878.5783,0.001699
1880.4419,0.001869
1882.3056,0.001901
1884.1693,0.001666
1886.0329,0.001745
1887.8966,0.001691
1889.7603,0.001596
1891.6240,0.001667
1893.4876,0.001513
1895.3513,0.001726
1897.2150,0.002455
1899.0786,0.002644
1900.9423,0.002013
1902.8060,0.001689
1904.6696,0.001988
1906.5333,0.002175
1908.3970,0.002044
1910.2606,0.002102
1912.1243,0.002130
1913.9880,0.002272
1915.8516,0.002312
1917.7153,0.002015
1919.5790,0.001806
1921.4427,0.001952
1923.3063,0.002327
1925.1700,0.002323
1927.0337,0.002109
1928.8973,0.002096
1930.7610,0.002527
1932.6247,0.002805
1934.4883,0.002553
1936.3520,0.002517
1938.2157,0.002910
1940.0793,0.003171
1941.9430,0.003497
1943.8067,0.003343
1945.6704,0.003127
1947.5340,0.004036
1949.3977,0.004210
1951.2614,0.003153
1953.1250,0.003198
1954.9887,0.003831
1956.8524,0.003275
1958.7160,0.002577
1960.5797,0.002267
1962.4434,0.002562
1964.3070,0.003376
1966.1707,0.003833
1968.0344,0.004427
1969.8980,0.004895
1971.7617,0.005277
1973.6254,0.004732
1975.4891,0.004554
1977.3527,0.006593
1979.2164,0.008201
1981.0801,0.007310
1982.9437,0.006154
1984.8074,0.006035
1986.6711,0.006018
1988.5347,0.005430
1990.3984,0.004483
1992.2621,0.004662
1994.1257,0.005448
1995.9894,0.005724
1997.8531,0.005572
1999.7167,0.005206
2001.5804,0.005460
2003.4441,0.006037
2005.3078,0.006455
2007.1714,0.006434
2009.0351,0.006491
2010.8988,0.007304
2012.7624,0.007799
2014.6261,0.007452
2016.4898,0.008054
2018.3534,0.007430
2020.2171,0.005564
2022.0808,0.006112
2023.9444,0.008077
2025.8081,0.007681
2027.6718,0.007226
2029.5355,0.008141
2031.3991,0.008736
2033.2628,0.009727
2035.1265,0.010677
2036.9901,0.010334
2038.8538,0.010003
2040.7175,0.010069
2042.5811,0.010777
2044.4448,0.011804
2046.3085,0.011307
2048.1721,0.011274
2050.0358,0.012911
2051.8995,0.012982
2053.7631,0.012403
2055.6268,0.012268
2057.4905,0.012853
2059.3542,0.012946
2061.2178,0.012728
2063.0815,0.012872
2064.9452,0.012505
2066.8088,0.011777
2068.6725,0.011391
2070.5362,0.011174
2072.3998,0.011059
2074.2635,0.010972
2076.1272,0.010996
2077.9908,0.010551
2079.8545,0.010143
2081.7182,0.009820
2083.5819,0.009387
2085.4455,0.009376
2087.3092,0.009417
2089.1729,0.008846
2091.0365,0.008296
2092.9002,0.008095
2094.7639,0.008055
2096.6275,0.008356
2098.4912,0.008561
2100.3549,0.008250
2102.2185,0.008410
2104.0822,0.008521
2105.9459,0.008441
2107.8095,0.008452
2109.6732,0.008839
2111.5369,0.008835
2113.4006,0.008730
2115.2642,0.008593
2117.1279,0.007919
2118.9916,0.007252
2120.8552,0.007528
2122.7189,0.007383
2124.5826,0.007084
2126.4462,0.007342
2128.3099,0.007320
2130.1736,0.006986
2132.0372,0.006878
2133.9009,0.006726
2135.7646,0.006977
2137.6282,0.007504
2139.4919,0.008439
2141.3556,0.008268
2143.2193,0.007980
2145.0829,0.008591
2146.9466,0.007893
2148.8103,0.006873
2150.6739,0.007306
2152.5376,0.006923
2154.4013,0.005727
2156.2649,0.006952
2158.1286,0.009904
2159.9923,0.012016
2161.8559,0.011792
2163.7196,0.010246
2165.5833,0.010818
2167.4470,0.011008
2169.3106,0.010008
2171.1743,0.009828
2173.0380,0.010548
2174.9016,0.010181
2176.7653,0.009360
2178.6290,0.009534
2180.4926,0.009827
2182.3563,0.009409
2184.2200,0.009825
2186.0836,0.009600
2187.9473,0.009311
2189.8110,0.010143
2191.6746,0.010285
2193.5383,0.009697
2195.4020,0.009126
2197.2657,0.009335
2199.1293,0.009861
2200.9930,0.009927
2202.8567,0.009516
2204.7203,0.008634
2206.5840,0.009203
2208.4477,0.009506
2210.3113,0.008601
2212.1750,0.008623
2214.0387,0.009034
2215.9023,0.008929
2217.7660,0.008548
2219.6297,0.008516
2221.4934,0.009296
2223.3570,0.009502
2225.2207,0.009164
2227.0844,0.008794
2228.9480,0.009059
2230.8117,0.008738
2232.6754,0.008277
2234.5390,0.008763
2236.4027,0.009460
2238.2664,0.009200
2240.1300,0.008506
2241.9937,0.008561
2243.8574,0.008455
2245.7210,0.008525
2247.5847,0.009443
2249.4484,0.008873
2251.3121,0.008171
2253.1757,0.008088
2255.0394,0.008381
2256.9031,0.008709
2258.7667,0.009158
2260.6304,0.009522
2262.4941,0.008919
2264.3577,0.007902
2266.2214,0.007600
2268.0851,0.007869
2269.9487,0.008711
2271.8124,0.008984
2273.6761,0.008969
2275.5397,0.008946
2277.4034,0.008898
2279.2671,0.008990
2281.1308,0.009146
2282.9944,0.008953
2284.8581,0.008986
2286.7218,0.009127
2288.5854,0.008740
2290.4491,0.008130
2292.3128,0.008080
2294.1764,0.008167
2296.0401,0.007987
2297.9038,0.007700
2299.7674,0.007691
2301.6311,0.007905
2303.4948,0.008483
2305.3585,0.008334
2307.2221,0.007585
2309.0858,0.007144
2310.9495,0.007494
2312.8131,0.007883
2314.6768,0.007908
2316.5405,0.008068
2318.4041,0.008218
2320.2678,0.007912
2322.1315,0.008087
2323.9951,0.008323
2325.8588,0.007991
2327.7225,0.007618
2329.5861,0.007553
2331.4498,0.007183
2333.3135,0.006956
2335.1772,0.007297
2337.0408,0.007517
2338.9045,0.007370
2340.7682,0.007873
2342.6318,0.008640
2344.4955,0.008720
2346.3592,0.008071
2348.2228,0.006956
2350.0865,0.005865
2351.9502,0.006029
2353.8138,0.006501
2355.6775,0.006366
2357.5412,0.006966
2359.4049,0.007906
2361.2685,0.008570
2363.1322,0.008682
2364.9959,0.008569
2366.8595,0.008864
2368.7232,0.009195
2370.5869,0.009468
2372.4505,0.008927
2374.3142,0.008460
2376.1779,0.008487
2378.0415,0.008202
2379.9052,0.007976
2381.7689,0.007902
2383.6325,0.007698
2385.4962,0.007404
2387.3599,0.007316
2389.2236,0.007371
2391.0872,0.007233
2392.9509,0.007475
2394.8146,0.007500
2396.6782,0.007377
2398.5419,0.007325
2400.4056,0.007384
2402.2692,0.007633
2404.1329,0.007468
2405.9966,0.007394
2407.8602,0.007686
2409.7239,0.007860
2411.5876,0.007836
2413.4512,0.007660
2415.3149,0.007760
2417.1786,0.008050
2419.0423,0.008153
2420.9059,0.008004
2422.7696,0.008191
2424.6333,0.008675
2426.4969,0.008731
2428.3606,0.008631
2430.2243,0.008734
2432.0879,0.008840
2433.9516,0.008934
2435.8153,0.008436
2437.6789,0.008435
2439.5426,0.009078
2441.4063,0.009205
2443.2700,0.009239
2445.1336,0.009373
2446.9973,0.009367
2448.8610,0.009582
2450.7246,0.009656
2452.5883,0.009642
2454.4520,0.009509
2456.3156,0.009509
2458.1793,0.009379
2460.0430,0.009295
2461.9066,0.009613
2463.7703,0.010000
2465.6340,0.009981
2467.4976,0.009809
2469.3613,0.009834
2471.2250,0.009942
2473.0887,0.009981
2474.9523,0.009790
2476.8160,0.009653
2478.6797,0.009796
2480.5433,0.010129
2482.4070,0.010345
2484.2707,0.010235
2486.1343,0.010169
2487.9980,0.010129
2489.8617,0.010724
2491.7253,0.011018
2493.5890,0.010811
2495.4527,0.010644
2497.3164,0.010937
2499.1800,0.010959
2501.0437,0.010922
2502.9074,0.011048
2504.7710,0.010920
2506.6347,0.010840
2508.4984,0.011114
2510.3620,0.011255
2512.2257,0.011521
2514.0894,0.011541
2515.9530,0.011513
2517.8167,0.011493
2519.6804,0.011717
2521.5440,0.011833
2523.4077,0.012020
2525.2714,0.012033
2527.1351,0.011676
2528.9987,0.011602
2530.8624,0.011985
2532.7261,0.011916
2534.5897,0.011745
2536.4534,0.012322
2538.3171,0.012602
2540.1807,0.012585
2542.0444,0.012521
2543.9081,0.012224
2545.7717,0.012380
2547.6354,0.012784
2549.4991,0.013044
2551.3627,0.012989
2553.2264,0.012760
2555.0901,0.012467
2556.9538,0.012494
2558.8174,0.012835
2560.6811,0.013152
2562.5448,0.013410
2564.4084,0.013490
2566.2721,0.013386
2568.1358,0.013500
2569.9994,0.013698
2571.8631,0.013836
2573.7268,0.014161
2575.5904,0.014012
2577.4541,0.013717
2579.3178,0.013986
2581.1815,0.014156
2583.0451,0.014197
2584.9088,0.014238
2586.7725,0.014392
2588.6361,0.014450
2590.4998,0.014510
2592.3635,0.014790
2594.2271,0.014790
2596.0908,0.014805
2597.9545,0.015170
2599.8181,0.015428
2601.6818,0.015542
2603.5455,0.015512
2605.4091,0.015683
2607.2728,0.016020
2609.1365,0.015997
2611.0002,0.015656
2612.8638,0.015859
2614.7275,0.016224
2616.5912,0.016475
2618.4548,0.016675
2620.3185,0.016882
2622.1822,0.017060
2624.0458,0.017047
2625.9095,0.017013
2627.7732,0.017086
2629.6368,0.017363
2631.5005,0.017602
2633.3642,0.017646
2635.2279,0.017704
2637.0915,0.017763
2638.9552,0.017917
2640.8189,0.018088
2642.6825,0.018296
2644.5462,0.018484
2646.4099,0.018613
2648.2735,0.018587
2650.1372,0.018592
2652.0009,0.018643
2653.8645,0.018711
2655.7282,0.018680
2657.5919,0.018573
2659.4555,0.018616
2661.3192,0.018717
2663.1829,0.018711
2665.0466,0.018836
2666.9102,0.018957
2668.7739,0.019045
2670.6376,0.019073
2672.5012,0.019145
2674.3649,0.019372
2676.2286,0.019575
2678.0922,0.019568
2679.9559,0.019604
2681.8196,0.019631
2683.6832,0.019845
2685.5469,0.020088
2687.4106,0.020172
2689.2742,0.020146
2691.1379,0.020285
2693.0016,0.020535
2694.8653,0.020773
2696.7289,0.020922
2698.5926,0.021026
2700.4563,0.021035
2702.3199,0.021210
2704.1836,0.021331
2706.0473,0.021349
2707.9109,0.021531
2709.7746,0.021922
2711.6383,0.022197
2713.5019,0.022413
2715.3656,0.022501
2717.2293,0.022642
2719.0930,0.022896
2720.9566,0.023096
2722.8203,0.023243
2724.6840,0.023495
2726.5476,0.023853
2728.4113,0.024085
2730.2750,0.024264
2732.1386,0.024555
2734.0023,0.024785
2735.8660,0.024892
2737.7296,0.025122
2739.5933,0.025258
2741.4570,0.025539
2743.3206,0.025906
2745.1843,0.026137
2747.0480,0.026382
2748.9117,0.026422
2750.7753,0.026530
2752.6390,0.026881
2754.5027,0.027163
2756.3663,0.027500
2758.2300,0.027854
2760.0937,0.027913
2761.9573,0.028160
2763.8210,0.028405
2765.6847,0.028460
2767.5483,0.028746
2769.4120,0.029194
2771.2757,0.029447
2773.1394,0.029830
2775.0030,0.030341
2776.8667,0.030464
2778.7304,0.030416
2780.5940,0.030737
2782.4577,0.031131
2784.3214,0.031555
2786.1850,0.031818
2788.0487,0.031827
2789.9124,0.031991
2791.7760,0.032318
2793.6397,0.032603
2795.5034,0.033004
2797.3670,0.033390
2799.2307,0.033759
2801.0944,0.033998
2802.9581,0.034239
2804.8217,0.034569
2806.6854,0.034983
2808.5491,0.035314
2810.4127,0.035585
2812.2764,0.035931
2814.1401,0.036352
2816.0037,0.036663
2817.8674,0.036943
2819.7311,0.037325
2821.5947,0.037688
2823.4584,0.038220
2825.3221,0.038727
2827.1857,0.039089
2829.0494,0.039751
2830.9131,0.040183
2832.7768,0.040783
2834.6404,0.041535
2836.5041,0.042143
2838.3678,0.042627
2840.2314,0.043369
2842.0951,0.044722
2843.9588,0.046381
2845.8224,0.047943
2847.6861,0.049338
2849.5498,0.050472
2851.4134,0.051186
2853.2771,0.051304
2855.1408,0.051129
2857.0045,0.050785
2858.8681,0.050628
2860.7318,0.050830
2862.5955,0.051356
2864.4591,0.051990
2866.3228,0.052773
2868.1865,0.053429
2870.0501,0.054200
2871.9138,0.054806
2873.7775,0.054865
2875.6411,0.054516
2877.5048,0.054518
2879.3685,0.054829
2881.2321,0.054821
2883.0958,0.054758
2884.9595,0.054943
2886.8232,0.055100
2888.6868,0.055341
2890.5505,0.055615
2892.4142,0.055995
2894.2778,0.056606
2896.1415,0.057370
2898.0052,0.057851
2899.8688,0.058339
2901.7325,0.059083
2903.5962,0.060096
2905.4598,0.061114
2907.3235,0.062086
2909.1872,0.063103
2911.0509,0.064530
2912.9145,0.065903
2914.7782,0.067210
2916.6419,0.068483
2918.5055,0.069538
2920.3692,0.069989
2922.2329,0.070077
2924.0965,0.070197
2925.9602,0.070178
2927.8239,0.069893
2929.6875,0.069669
2931.5512,0.068910
2933.4149,0.068108
2935.2785,0.067544
2937.1422,0.067001
2939.0059,0.066333
2940.8696,0.065673
2942.7332,0.065005
2944.5969,0.064773
2946.4606,0.065076
2948.3242,0.065362
2950.1879,0.065265
2952.0516,0.065274
2953.9152,0.065686
2955.7789,0.066236
2957.6426,0.066426
2959.5062,0.066280
2961.3699,0.065757
2963.2336,0.064863
2965.0972,0.064076
2966.9609,0.063507
2968.8246,0.062702
2970.6883,0.062005
2972.5519,0.061240
2974.4156,0.060005
2976.2793,0.059148
2978.1429,0.058693
2980.0066,0.057953
2981.8703,0.057179
2983.7339,0.056595
2985.5976,0.056067
2987.4613,0.055629
2989.3249,0.055481
2991.1886,0.055370
2993.0523,0.055235
2994.9160,0.055073
2996.7796,0.054862
2998.6433,0.054702
3000.5070,0.054867
3002.3706,0.055095
3004.2343,0.055582
3006.0980,0.055904
3007.9616,0.056236
3009.8253,0.056868
3011.6890,0.057433
3013.5526,0.057846
3015.4163,0.058335
3017.2800,0.058525
3019.1436,0.058845
3021.0073,0.059367
3022.8710,0.059943
3024.7347,0.060662
3026.5983,0.061405
3028.4620,0.061939
3030.3257,0.062490
3032.1893,0.063226
3034.0530,0.063921
3035.9167,0.064371
3037.7803,0.064822
3039.6440,0.065451
3041.5077,0.066142
3043.3713,0.066573
3045.2350,0.066954
3047.0987,0.067474
3048.9624,0.068177
3050.8260,0.068643
3052.6897,0.068952
3054.5534,0.069414
3056.4170,0.070064
3058.2807,0.070497
3060.1444,0.070895
3062.0080,0.071246
3063.8717,0.071588
3065.7354,0.071980
3067.5990,0.072089
3069.4627,0.072071
3071.3264,0.072293
3073.1900,0.072609
3075.0537,0.072986
3076.9174,0.073057
3078.7811,0.072833
3080.6447,0.072841
3082.5084,0.073155
3084.3721,0.073090
3086.2357,0.073030
3088.0994,0.073164
3089.9631,0.072779
3091.8267,0.072451
3093.6904,0.072874
3095.5541,0.073123
3097.4177,0.073052
3099.2814,0.072996
3101.1451,0.073294
3103.0087,0.073535
3104.8724,0.073671
3106.7361,0.074083
3108.5998,0.074472
3110.4634,0.074728
3112.3271,0.074997
3114.1908,0.075105
3116.0544,0.075482
3117.9181,0.075834
3119.7818,0.076089
3121.6454,0.076491
3123.5091,0.076999
3125.3728,0.077404
3127.2364,0.077836
3129.1001,0.078420
3130.9638,0.078969
3132.8275,0.079796
3134.6911,0.080540
3136.5548,0.080998
3138.4185,0.081329
3140.2821,0.081622
3142.1458,0.082473
3144.0095,0.083516
3145.8731,0.084601
3147.7368,0.085465
3149.6005,0.085707
3151.4641,0.085998
3153.3278,0.086672
3155.1915,0.087187
3157.0551,0.087790
3158.9188,0.088497
3160.7825,0.089304
3162.6462,0.090361
3164.5098,0.091128
3166.3735,0.091536
3168.2372,0.091997
3170.1008,0.092670
3171.9645,0.093530
3173.8282,0.094151
3175.6918,0.094428
3177.5555,0.095042
3179.4192,0.096031
3181.2828,0.096639
3183.1465,0.097540
3185.0102,0.098784
3186.8739,0.099115
3188.7375,0.098987
3190.6012,0.099381
3192.4649,0.100199
3194.3285,0.100624
3196.1922,0.100505
3198.0559,0.101116
3199.9195,0.101936
3201.7832,0.102333
3203.6469,0.102707
3205.5105,0.102942
3207.3742,0.103266
3209.2379,0.103413
3211.1015,0.103374
3212.9652,0.104038
3214.8289,0.104659
3216.6926,0.104408
3218.5562,0.104647
3220.4199,0.105345
3222.2836,0.105630
3224.1472,0.105947
3226.0109,0.106189
3227.8746,0.106538
3229.7382,0.107122
3231.6019,0.107442
3233.4656,0.107669
3235.3292,0.108071
3237.1929,0.108647
3239.0566,0.109344
3240.9202,0.109760
3242.7839,0.109910
3244.6476,0.110313
3246.5113,0.110562
3248.3749,0.110887
3250.2386,0.111364
3252.1023,0.111555
3253.9659,0.112250
3255.8296,0.113482
3257.6933,0.113718
3259.5569,0.113600
3261.4206,0.114082
3263.2843,0.114745
3265.1479,0.114992
3267.0116,0.114802
3268.8753,0.114715
3270.7390,0.114683
3272.6026,0.114383
3274.4663,0.114553
3276.3300,0.114910
3278.1936,0.114820
3280.0573,0.114183
3281.9210,0.113916
3283.7846,0.113947
3285.6483,0.113692
3287.5120,0.113218
3289.3756,0.113010
3291.2393,0.112702
3293.1030,0.111856
3294.9666,0.110755
3296.8303,0.110268
3298.6940,0.109824
3300.5577,0.108989
3302.4213,0.108284
3304.2850,0.107617
3306.1487,0.106704
3308.0123,0.106480
3309.8760,0.106225
3311.7397,0.105444
3313.6033,0.104783
3315.4670,0.104295
3317.3307,0.103612
3319.1943,0.103054
3321.0580,0.102475
3322.9217,0.102046
3324.7854,0.101791
3326.6490,0.101091
3328.5127,0.100183
3330.3764,0.099991
3332.2400,0.099770
3334.1037,0.099197
3335.9674,0.099137
3337.8310,0.099408
3339.6947,0.098599
3341.5584,0.097504
3343.4220,0.097053
3345.2857,0.096880
3347.1494,0.096383
3349.0130,0.096085
3350.8767,0.095718
3352.7404,0.095561
3354.6041,0.095562
3356.4677,0.095318
3358.3314,0.094202
3360.1951,0.093114
3362.0587,0.092896
3363.9224,0.092978
3365.7861,0.092558
3367.6497,0.092365
3369.5134,0.092027
3371.3771,0.091410
3373.2407,0.090492
3375.1044,0.090066
3376.9681,0.090405
3378.8317,0.090024
3380.6954,0.089122
3382.5591,0.088827
3384.4228,0.088689
3386.2864,0.088507
3388.1501,0.088329
3390.0138,0.087622
3391.8774,0.086590
3393.7411,0.086737
3395.6048,0.087034
3397.4684,0.086414
3399.3321,0.085426
3401.1958,0.084687
3403.0594,0.084573
3404.9231,0.085118
3406.7868,0.084816
3408.6505,0.083595
3410.5141,0.082989
3412.3778,0.083305
3414.2415,0.083007
3416.1051,0.082637
3417.9688,0.081619
3419.8325,0.080475
3421.6961,0.079805
3423.5598,0.079462
3425.4235,0.079036
3427.2871,0.078406
3429.1508,0.077665
3431.0145,0.077534
3432.8781,0.077358
3434.7418,0.076887
3436.6055,0.075978
3438.4692,0.075689
3440.3328,0.075468
3442.1965,0.074645
3444.0602,0.074191
3445.9238,0.074335
3447.7875,0.073346
3449.6512,0.072233
3451.5148,0.071443
3453.3785,0.071187
3455.2422,0.070945
3457.1058,0.069889
3458.9695,0.068835
3460.8332,0.068562
3462.6969,0.068233
3464.5605,0.067772
3466.4242,0.067173
3468.2879,0.066718
3470.1515,0.066051
3472.0152,0.065201
3473.8789,0.064047
3475.7425,0.063645
3477.6062,0.063625
3479.4699,0.063257
3481.3335,0.062716
3483.1972,0.061737
3485.0609,0.061205
3486.9245,0.060861
3488.7882,0.059730
3490.6519,0.058662
3492.5156,0.057733
3494.3792,0.057309
3496.2429,0.057197
3498.1066,0.057176
3499.9702,0.056465
3501.8339,0.055400
3503.6976,0.054197
3505.5612,0.054386
3507.4249,0.054372
3509.2886,0.053156
3511.1522,0.052183
3513.0159,0.051359
3514.8796,0.049998
3516.7432,0.049513
3518.6069,0.049248
3520.4706,0.048899
3522.3343,0.048018
3524.1979,0.046888
3526.0616,0.046226
3527.9253,0.045890
3529.7889,0.044841
3531.6526,0.044272
3533.5163,0.043835
3535.3799,0.042902
3537.2436,0.041954
3539.1073,0.041300
3540.9709,0.040497
3542.8346,0.039627
3544.6983,0.038966
3546.5620,0.038650
3548.4256,0.037654
3550.2893,0.036779
3552.1530,0.036151
3554.0166,0.035442
3555.8803,0.034330
3557.7440,0.033299
3559.6076,0.033158
3561.4713,0.032783
3563.3350,0.031848
3565.1986,0.030977
3567.0623,0.030243
3568.9260,0.030290
3570.7896,0.029425
3572.6533,0.028083
3574.5170,0.026834
3576.3807,0.026234
3578.2443,0.026201
3580.1080,0.024969
3581.9717,0.023586
3583.8353,0.023294
3585.6990,0.022510
3587.5627,0.021634
3589.4263,0.021774
3591.2900,0.021149
3593.1537,0.019656
3595.0173,0.019364
3596.8810,0.019090
3598.7447,0.018207
3600.6084,0.017245
3602.4720,0.016889
3604.3357,0.016444
3606.1994,0.015518
3608.0630,0.014794
3609.9267,0.014734
3611.7904,0.014024
3613.6540,0.012984
3615.5177,0.012596
3617.3814,0.012039
3619.2450,0.010881
3621.1087,0.010791
3622.9724,0.010585
3624.8360,0.009454
3626.6997,0.008172
3628.5634,0.007098
3630.4271,0.007174
3632.2907,0.007293
3634.1544,0.006092
3636.0181,0.005628
3637.8817,0.005648
3639.7454,0.004723
3641.6091,0.003896
3643.4727,0.003438
3645.3364,0.002339
3647.2001,0.000911
3649.0637,0.000652
3650.9274,0.001587
3652.7911,0.001679
3654.6547,0.000374
3656.5184,-0.000735
3658.3821,-0.000752
3660.2458,-0.000749
3662.1094,-0.001290
3663.9731,-0.001879
3665.8368,-0.002240
3667.7004,-0.002646
3669.5641,-0.003393
3671.4278,-0.003175
3673.2914,-0.003089
3675.1551,-0.004397
3677.0188,-0.004957
3678.8824,-0.004802
3680.7461,-0.005040
3682.6098,-0.004813
3684.4735,-0.004894
3686.3371,-0.005520
3688.2008,-0.005976
3690.0645,-0.006035
3691.9281,-0.005627
3693.7918,-0.005491
3695.6555,-0.005706
3697.5191,-0.005714
3699.3828,-0.006344
3701.2465,-0.006881
3703.1101,-0.006378
3704.9738,-0.005972
3706.8375,-0.006534
3708.7011,-0.007108
3710.5648,-0.007420
3712.4285,-0.006944
3714.2922,-0.005896
3716.1558,-0.006089
3718.0195,-0.006826
3719.8832,-0.007201
3721.7468,-0.007372
3723.6105,-0.006656
3725.4742,-0.006030
3727.3378,-0.006059
3729.2015,-0.006063
3731.0652,-0.006694
3732.9288,-0.007310
3734.7925,-0.007142
3736.6562,-0.006893
3738.5199,-0.006922
3740.3835,-0.006608
3742.2472,-0.006755
3744.1109,-0.007519
3745.9745,-0.007014
3747.8382,-0.006708
3749.7019,-0.007603
3751.5655,-0.007198
3753.4292,-0.006516
3755.2929,-0.006316
3757.1565,-0.006876
3759.0202,-0.007305
3760.8839,-0.006799
3762.7475,-0.006383
3764.6112,-0.006699
3766.4749,-0.006944
3768.3386,-0.006804
3770.2022,-0.006973
3772.0659,-0.006662
3773.9296,-0.006660
3775.7932,-0.006715
3777.6569,-0.006977
3779.5206,-0.007319
3781.3842,-0.006780
3783.2479,-0.006750
3785.1116,-0.006824
3786.9752,-0.006374
3788.8389,-0.006552
3790.7026,-0.006742
3792.5662,-0.006864
3794.4299,-0.007215
3796.2936,-0.007237
3798.1573,-0.006599
3800.0209,-0.006823
3801.8846,-0.007283
3803.7483,-0.006555
3805.6119,-0.006773
3807.4756,-0.007136
3809.3393,-0.006485
3811.2029,-0.006458
3813.0666,-0.006815
3814.9303,-0.007468
3816.7939,-0.007445
3818.6576,-0.006744
3820.5213,-0.007432
3822.3850,-0.007022
3824.2486,-0.006275
3826.1123,-0.007050
3827.9760,-0.007183
3829.8396,-0.007018
3831.7033,-0.007477
3833.5670,-0.007389
3835.4306,-0.006769
3837.2943,-0.006201
3839.1580,-0.006284
3841.0216,-0.006867
3842.8853,-0.006860
3844.7490,-0.006558
3846.6126,-0.006477
3848.4763,-0.006755
3850.3400,-0.007218
3852.2037,-0.007838
3854.0673,-0.007708
3855.9310,-0.006472
3857.7947,-0.006071
3859.6583,-0.006484
3861.5220,-0.006804
3863.3857,-0.007107
3865.2493,-0.007049
3867.1130,-0.006521
3868.9767,-0.006647
3870.8403,-0.006876
3872.7040,-0.006305
3874.5677,-0.006499
3876.4314,-0.006504
3878.2950,-0.006771
3880.1587,-0.007172
3882.0224,-0.006525
3883.8860,-0.005985
3885.7497,-0.006357
3887.6134,-0.006188
3889.4770,-0.006393
3891.3407,-0.006696
3893.2044,-0.006316
3895.0680,-0.006173
3896.9317,-0.006365
3898.7954,-0.006729
3900.6590,-0.006586
3902.5227,-0.006280
3904.3864,-0.006429
3906.2501,-0.005969
3908.1137,-0.005817
3909.9774,-0.006238
3911.8411,-0.006610
3913.7047,-0.006447
3915.5684,-0.006386
3917.4321,-0.006555
3919.2957,-0.006198
3921.1594,-0.005830
3923.0231,-0.005857
3924.8867,-0.005926
3926.7504,-0.006027
3928.6141,-0.006150
3930.4777,-0.006195
3932.3414,-0.005940
3934.2051,-0.005583
3936.0688,-0.005738
3937.9324,-0.006028
3939.7961,-0.005877
3941.6598,-0.006109
3943.5234,-0.006442
3945.3871,-0.006248
3947.2508,-0.005979
3949.1144,-0.006113
3950.9781,-0.005851
3952.8418,-0.005746
3954.7054,-0.006014
3956.5691,-0.005825
3958.4328,-0.005633
3960.2965,-0.005983
3962.1601,-0.006251
3964.0238,-0.006294
3965.8875,-0.006239
3967.7511,-0.006203
3969.6148,-0.006012
3971.4785,-0.006029
3973.3421,-0.005907
3975.2058,-0.006032
3977.0695,-0.006046
3978.9331,-0.005651
3980.7968,-0.005341
3982.6605,-0.005861
3984.5241,-0.006127
3986.3878,-0.005972
3988.2515,-0.005821
3990.1152,-0.005842
3991.9788,-0.006047
3993.8425,-0.006028
3995.7062,-0.005726
3997.5698,-0.005580
3999.4335,-0.005861
