Wavenumber,Intensity
650.4205,0.066092
652.2841,0.068250
654.1478,0.067205
656.0115,0.066677
657.8751,0.066876
659.7388,0.066957
661.6025,0.067865
663.4661,0.067527
665.3298,0.067656
667.1935,0.067114
669.0571,0.064385
670.9208,0.063972
672.7845,0.063510
674.6481,0.063405
676.5118,0.063436
678.3755,0.062237
680.2392,0.061452
682.1028,0.060662
683.9665,0.059129
685.8302,0.059153
687.6938,0.059779
689.5575,0.059749
691.4212,0.060315
693.2848,0.059423
695.1485,0.057842
697.0122,0.057570
698.8758,0.057533
700.7395,0.056704
702.6032,0.055662
704.4669,0.055505
706.3305,0.055226
708.1942,0.054091
710.0579,0.053555
711.9215,0.053344
713.7852,0.053046
715.6489,0.053038
717.5125,0.052829
719.3762,0.052269
721.2399,0.051795
723.1035,0.050598
724.9672,0.049283
726.8309,0.048629
728.6945,0.048114
730.5582,0.048392
732.4219,0.048165
734.2856,0.047400
736.1492,0.047113
738.0129,0.046705
739.8766,0.046417
741.7402,0.046362
743.6039,0.046340
745.4676,0.045999
747.3312,0.045261
749.1949,0.044603
751.0586,0.044623
752.9222,0.044905
754.7859,0.044157
756.6496,0.043365
758.5132,0.043714
760.3769,0.044174
762.2406,0.043935
764.1043,0.043367
765.9679,0.043152
767.8316,0.042941
769.6953,0.042357
771.5589,0.041994
773.4226,0.041959
775.2863,0.041627
777.1499,0.040840
779.0136,0.040213
780.8773,0.039659
782.7409,0.039073
784.6046,0.038650
786.4683,0.038098
788.3320,0.037470
790.1956,0.037045
792.0593,0.036782
793.9230,0.036623
795.7866,0.036576
797.6503,0.036353
799.5140,0.035920
801.3776,0.035676
803.2413,0.035391
805.1050,0.035420
806.9686,0.035823
808.8323,0.035780
810.6960,0.035571
812.5596,0.035562
814.4233,0.035213
816.2870,0.034710
818.1507,0.034561
820.0143,0.034517
821.8780,0.034151
823.7417,0.033567
825.6053,0.033049
827.4690,0.032475
829.3327,0.031686
831.1963,0.030829
833.0600,0.030246
834.9237,0.029977
836.7873,0.029289
838.6510,0.028321
840.5147,0.027661
842.3784,0.027259
844.2420,0.026906
846.1057,0.026678
847.9694,0.026468
849.8330,0.026199
851.6967,0.026196
853.5604,0.026050
855.4240,0.025629
857.2877,0.025727
859.1514,0.025877
861.0150,0.025866
862.8787,0.026068
864.7424,0.026085
866.6060,0.026059
868.4697,0.026348
870.3334,0.026673
872.1971,0.026752
874.0607,0.026692
875.9244,0.026778
877.7881,0.026694
879.6517,0.026385
881.5154,0.026012
883.3791,0.025556
885.2427,0.025165
887.1064,0.025037
888.9701,0.024940
890.8337,0.024751
892.6974,0.024696
894.5611,0.024857
896.4247,0.024922
898.2884,0.024716
900.1521,0.024384
902.0158,0.024171
903.8794,0.024027
905.7431,0.023933
907.6068,0.023839
909.4704,0.023771
911.3341,0.023811
913.1978,0.024016
915.0614,0.024263
916.9251,0.024514
918.7888,0.024888
920.6524,0.025206
922.5161,0.025300
924.3798,0.025333
926.2435,0.025393
928.1071,0.025460
929.9708,0.025400
931.8345,0.025247
933.6981,0.025232
935.5618,0.025303
937.4255,0.025450
939.2891,0.025888
941.1528,0.026618
943.0165,0.027414
944.8801,0.028132
946.7438,0.028686
948.6075,0.028970
950.4711,0.029076
952.3348,0.029160
954.1985,0.029312
956.0622,0.029645
957.9258,0.030294
959.7895,0.031427
961.6532,0.032870
963.5168,0.034420
965.3805,0.035900
967.2442,0.037065
969.1078,0.037775
970.9715,0.038062
972.8352,0.038119
974.6988,0.038196
976.5625,0.038573
978.4262,0.039351
980.2899,0.040363
982.1535,0.041368
984.0172,0.042309
985.8809,0.043175
987.7445,0.043977
989.6082,0.044775
991.4719,0.045587
993.3355,0.046394
995.1992,0.047222
997.0629,0.048045
998.9265,0.048835
1000.7902,0.049360
1002.6539,0.049804
1004.5175,0.050513
1006.3812,0.051527
1008.2449,0.052928
1010.1086,0.054770
1011.9722,0.056990
1013.8359,0.059364
1015.6996,0.061732
1017.5632,0.063994
1019.4269,0.065842
1021.2906,0.067223
1023.1542,0.068218
1025.0179,0.068970
1026.8816,0.069614
1028.7452,0.070234
1030.6089,0.070921
1032.4726,0.071514
1034.3362,0.071837
1036.1999,0.071817
1038.0636,0.071532
1039.9273,0.071104
1041.7909,0.070532
1043.6546,0.069869
1045.5183,0.069262
1047.3819,0.068859
1049.2456,0.068661
1051.1093,0.068630
1052.9729,0.068702
1054.8366,0.068966
1056.7003,0.069322
1058.5639,0.069613
1060.4276,0.069775
1062.2913,0.069909
1064.1550,0.070067
1066.0186,0.070401
1067.8823,0.070816
1069.7460,0.071122
1071.6096,0.071308
1073.4733,0.071254
1075.3370,0.070827
1077.2006,0.070057
1079.0643,0.068958
1080.9280,0.067399
1082.7916,0.065380
1084.6553,0.063118
1086.5190,0.060786
1088.3826,0.058456
1090.2463,0.056440
1092.1100,0.054811
1093.9737,0.053326
1095.8373,0.051965
1097.7010,0.050854
1099.5647,0.049899
1101.4283,0.049068
1103.2920,0.048369
1105.1557,0.047866
1107.0193,0.047565
1108.8830,0.047379
1110.7467,0.047234
1112.6103,0.047069
1114.4740,0.046818
1116.3377,0.046427
1118.2014,0.045927
1120.0650,0.045442
1121.9287,0.044935
1123.7924,0.044371
1125.6560,0.043803
1127.5197,0.043198
1129.3834,0.042454
1131.2470,0.041668
1133.1107,0.040861
1134.9744,0.040017
1136.8380,0.039106
1138.7017,0.038331
1140.5654,0.037690
1142.4290,0.037137
1144.2927,0.036815
1146.1564,0.036690
1148.0201,0.036762
1149.8837,0.036956
1151.7474,0.037130
1153.6111,0.037305
1155.4747,0.037350
1157.3384,0.037253
1159.2021,0.037123
1161.0657,0.036913
1162.9294,0.036510
1164.7931,0.036006
1166.6567,0.035376
1168.5204,0.034553
1170.3841,0.033402
1172.2477,0.032016
1174.1114,0.030512
1175.9751,0.029027
1177.8388,0.027763
1179.7024,0.026811
1181.5661,0.026105
1183.4298,0.025696
1185.2934,0.025651
1187.1571,0.025852
1189.0208,0.026090
1190.8844,0.026451
1192.7481,0.027046
1194.6118,0.027803
1196.4754,0.028543
1198.3391,0.029401
1200.2028,0.030386
1202.0665,0.031401
1203.9301,0.032384
1205.7938,0.033159
1207.6575,0.033827
1209.5211,0.034483
1211.3848,0.035039
1213.2485,0.035489
1215.1121,0.036056
1216.9758,0.036780
1218.8395,0.037482
1220.7031,0.038191
1222.5668,0.038961
1224.4305,0.039708
1226.2941,0.040327
1228.1578,0.040927
1230.0215,0.041494
1231.8852,0.041945
1233.7488,0.042303
1235.6125,0.042554
1237.4762,0.042744
1239.3398,0.042802
1241.2035,0.042774
1243.0672,0.042662
1244.9308,0.042463
1246.7945,0.042203
1248.6582,0.041768
1250.5218,0.041216
1252.3855,0.040756
1254.2492,0.040357
1256.1129,0.039910
1257.9765,0.039390
1259.8402,0.038873
1261.7039,0.038549
1263.5675,0.038186
1265.4312,0.037838
1267.2949,0.037558
1269.1585,0.037228
1271.0222,0.037043
1272.8859,0.036850
1274.7495,0.036525
1276.6132,0.036137
1278.4769,0.035926
1280.3405,0.035903
1282.2042,0.035792
1284.0679,0.035690
1285.9316,0.035681
1287.7952,0.035685
1289.6589,0.035666
1291.5226,0.035806
1293.3862,0.036057
1295.2499,0.036433
1297.1136,0.036815
1298.9772,0.037149
1300.8409,0.037602
1302.7046,0.038032
1304.5682,0.038474
1306.4319,0.038987
1308.2956,0.039340
1310.1592,0.039557
1312.0229,0.039938
1313.8866,0.040235
1315.7503,0.040329
1317.6139,0.040451
1319.4776,0.040578
1321.3413,0.040409
1323.2049,0.040201
1325.0686,0.040132
1326.9323,0.040050
1328.7959,0.039917
1330.6596,0.039817
1332.5233,0.039687
1334.3869,0.039557
1336.2506,0.039627
1338.1143,0.040067
1339.9780,0.040580
1341.8416,0.040610
1343.7053,0.040531
1345.5690,0.040631
1347.4326,0.040660
1349.2963,0.040640
1351.1600,0.040438
1353.0236,0.040194
1354.8873,0.040130
1356.7510,0.040029
1358.6146,0.039944
1360.4783,0.040388
1362.3420,0.041496
1364.2056,0.042417
1366.0693,0.043126
1367.9330,0.044352
1369.7967,0.045403
1371.6603,0.046188
1373.5240,0.047587
1375.3877,0.048897
1377.2513,0.049452
1379.1150,0.049979
1380.9787,0.050375
1382.8423,0.050443
1384.7060,0.050545
1386.5697,0.051368
1388.4333,0.052142
1390.2970,0.052014
1392.1607,0.052186
1394.0244,0.053220
1395.8880,0.054268
1397.7517,0.054895
1399.6154,0.055716
1401.4790,0.055744
1403.3427,0.055850
1405.2064,0.056340
1407.0700,0.056018
1408.9337,0.055433
1410.7974,0.054846
1412.6610,0.053765
1414.5247,0.052239
1416.3884,0.050928
1418.2520,0.050785
1420.1157,0.050322
1421.9794,0.048818
1423.8431,0.047808
1425.7067,0.046813
1427.5704,0.046019
1429.4341,0.046020
1431.2977,0.045727
1433.1614,0.045019
1435.0251,0.045306
1436.8887,0.046980
1438.7524,0.047289
1440.6161,0.046723
1442.4797,0.046623
1444.3434,0.046488
1446.2071,0.046565
1448.0707,0.046875
1449.9344,0.046428
1451.7981,0.045343
1453.6618,0.044289
1455.5254,0.044160
1457.3891,0.045114
1459.2528,0.043871
1461.1164,0.041915
1462.9801,0.040984
1464.8438,0.040945
1466.7074,0.039833
1468.5711,0.038117
1470.4348,0.037118
1472.2984,0.037173
1474.1621,0.036783
1476.0258,0.035920
1477.8895,0.035099
1479.7531,0.034729
1481.6168,0.034943
1483.4805,0.034947
1485.3441,0.034963
1487.2078,0.035872
1489.0715,0.038118
1490.9351,0.039960
1492.7988,0.040234
1494.6625,0.041067
1496.5261,0.044007
1498.3898,0.046706
1500.2535,0.047677
1502.1171,0.047601
1503.9808,0.047930
1505.8445,0.051796
1507.7082,0.057746
1509.5718,0.058636
1511.4355,0.059471
1513.2992,0.060922
1515.1628,0.062471
1517.0265,0.063893
1518.8902,0.064615
1520.7538,0.066352
1522.6175,0.068469
1524.4812,0.069170
1526.3448,0.070635
1528.2085,0.071689
1530.0722,0.072230
1531.9359,0.073322
1533.7995,0.074836
1535.6632,0.074365
1537.5269,0.074194
1539.3905,0.075861
1541.2542,0.077739
1543.1179,0.077727
1544.9815,0.077429
1546.8452,0.076851
1548.7089,0.076379
1550.5725,0.075625
1552.4362,0.074466
1554.2999,0.072572
1556.1635,0.071087
1558.0272,0.071546
1559.8909,0.071565
1561.7546,0.068796
1563.6182,0.066702
1565.4819,0.065050
1567.3456,0.063805
1569.2092,0.062832
1571.0729,0.061092
1572.9366,0.058862
1574.8002,0.057761
1576.6639,0.057521
1578.5276,0.056363
1580.3912,0.054917
1582.2549,0.053875
1584.1186,0.053139
1585.9822,0.052480
1587.8459,0.052131
1589.7096,0.052199
1591.5733,0.052261
1593.4369,0.052343
1595.3006,0.052749
1597.1643,0.053061
1599.0279,0.053635
1600.8916,0.054711
1602.7553,0.055774
1604.6189,0.056852
1606.4826,0.058378
1608.3463,0.060297
1610.2099,0.062057
1612.0736,0.063331
1613.9373,0.064473
1615.8010,0.066752
1617.6646,0.069552
1619.5283,0.070493
1621.3920,0.071555
1623.2556,0.073736
1625.1193,0.075636
1626.9830,0.077113
1628.8466,0.078080
1630.7103,0.078247
1632.5740,0.078282
1634.4376,0.079026
1636.3013,0.079747
1638.1650,0.079190
1640.0286,0.078126
1641.8923,0.076938
1643.7560,0.075814
1645.6197,0.075417
1647.4833,0.074431
1649.3470,0.072370
1651.2107,0.071170
1653.0743,0.070716
1654.9380,0.068492
1656.8017,0.066139
1658.6653,0.063948
1660.5290,0.061988
1662.3927,0.059683
1664.2563,0.057049
1666.1200,0.054748
1667.9837,0.052760
1669.8474,0.050338
1671.7110,0.047753
1673.5747,0.045517
1675.4384,0.043090
1677.3020,0.040463
1679.1657,0.038114
1681.0294,0.035745
1682.8930,0.033602
1684.7567,0.030655
1686.6204,0.028150
1688.4840,0.025779
1690.3477,0.023110
1692.2114,0.020477
1694.0750,0.017975
1695.9387,0.014779
1697.8024,0.012104
1699.6661,0.009800
1701.5297,0.007599
1703.3934,0.006207
1705.2571,0.004647
1707.1207,0.003251
1708.9844,0.002304
1710.8481,0.001394
1712.7117,0.000482
1714.5754,-0.000485
1716.4391,-0.001311
1718.3027,-0.002009
1720.1664,-0.001904
1722.0301,-0.002029
1723.8937,-0.002429
1725.7574,-0.002785
1727.6211,-0.002990
1729.4848,-0.003134
1731.3484,-0.003245
1733.2121,-0.003825
1735.0758,-0.003760
1736.9394,-0.003578
1738.8031,-0.003885
1740.6668,-0.004152
1742.5304,-0.004185
1744.3941,-0.004157
1746.2578,-0.004274
1748.1214,-0.004649
1749.9851,-0.004938
1751.8488,-0.005295
1753.7125,-0.005359
1755.5761,-0.005646
1757.4398,-0.005865
1759.3035,-0.005967
1761.1671,-0.006264
1763.0308,-0.006402
1764.8945,-0.006414
1766.7581,-0.006463
1768.6218,-0.006244
1770.4855,-0.006424
1772.3491,-0.007007
1774.2128,-0.006993
1776.0765,-0.006803
1777.9401,-0.006743
1779.8038,-0.006805
1781.6675,-0.006722
1783.5312,-0.006768
1785.3948,-0.006742
1787.2585,-0.006663
1789.1222,-0.006831
1790.9858,-0.006969
1792.8495,-0.006838
1794.7132,-0.006673
1796.5768,-0.006837
1798.4405,-0.006906
1800.3042,-0.006983
1802.1678,-0.007174
1804.0315,-0.007228
1805.8952,-0.007111
1807.7589,-0.007069
1809.6225,-0.007019
1811.4862,-0.006978
1813.3499,-0.007107
1815.2135,-0.007287
1817.0772,-0.007104
1818.9409,-0.006973
1820.8045,-0.006852
1822.6682,-0.006883
1824.5319,-0.007021
1826.3955,-0.006743
1828.2592,-0.006855
1830.1229,-0.007273
1831.9865,-0.007217
1833.8502,-0.007085
1835.7139,-0.007037
1837.5776,-0.006884
1839.4412,-0.006649
1841.3049,-0.006862
1843.1686,-0.007420
1845.0322,-0.007171
1846.8959,-0.006532
1848.7596,-0.006584
1850.6232,-0.006815
1852.4869,-0.006838
1854.3506,-0.006772
1856.2142,-0.006725
1858.0779,-0.006596
1859.9416,-0.006606
1861.8052,-0.006658
1863.6689,-0.006986
1865.5326,-0.007095
1867.3963,-0.006861
1869.2599,-0.006930
1871.1236,-0.006783
1872.9873,-0.006578
1874.8509,-0.006778
1876.7146,-0.007071
1878.5783,-0.006854
1880.4419,-0.006361
1882.3056,-0.006102
1884.1693,-0.006356
1886.0329,-0.006516
1887.8966,-0.006299
1889.7603,-0.006236
1891.6240,-0.006467
1893.4876,-0.006345
1895.3513,-0.005701
1897.2150,-0.005664
1899.0786,-0.006205
1900.9423,-0.006670
1902.8060,-0.006542
1904.6696,-0.006041
1906.5333,-0.005842
1908.3970,-0.005857
1910.2606,-0.005785
1912.1243,-0.006017
1913.9880,-0.006005
1915.8516,-0.005582
1917.7153,-0.005388
1919.5790,-0.005665
1921.4427,-0.005843
1923.3063,-0.005480
1925.1700,-0.005252
1927.0337,-0.005312
1928.8973,-0.005567
1930.7610,-0.005315
1932.6247,-0.004924
1934.4883,-0.005767
1936.3520,-0.006107
1938.2157,-0.005448
1940.0793,-0.005255
1941.9430,-0.005181
1943.8067,-0.004995
1945.6704,-0.004748
1947.5340,-0.004427
1949.3977,-0.004817
1951.2614,-0.005692
1953.1250,-0.005817
1954.9887,-0.004900
1956.8524,-0.003748
1958.7160,-0.002889
1960.5797,-0.002804
1962.4434,-0.003578
1964.3070,-0.004084
1966.1707,-0.004161
1968.0344,-0.005026
1969.8980,-0.004908
1971.7617,-0.003561
1973.6254,-0.003446
1975.4891,-0.003849
1977.3527,-0.002808
1979.2164,-0.001785
1981.0801,-0.001791
1982.9437,-0.001802
1984.8074,-0.002140
1986.6711,-0.002496
1988.5347,-0.002440
1990.3984,-0.002191
1992.2621,-0.002206
1994.1257,-0.002708
1995.9894,-0.003395
1997.8531,-0.003579
1999.7167,-0.002682
2001.5804,-0.002882
2003.4441,-0.004323
2005.3078,-0.004677
2007.1714,-0.003136
2009.0351,-0.003112
2010.8988,-0.003356
2012.7624,-0.002753
2014.6261,-0.003191
2016.4898,-0.003411
2018.3534,-0.003523
2020.2171,-0.002823
2022.0808,-0.001958
2023.9444,-0.002233
2025.8081,-0.002340
2027.6718,-0.002784
2029.5355,-0.002620
2031.3991,-0.001925
2033.2628,-0.001951
2035.1265,-0.001283
2036.9901,-0.001244
2038.8538,-0.002798
2040.7175,-0.002372
2042.5811,-0.001563
2044.4448,-0.001929
2046.3085,-0.001552
2048.1721,-0.001424
2050.0358,-0.001457
2051.8995,-0.001900
2053.7631,-0.002767
2055.6268,-0.002291
2057.4905,-0.002235
2059.3542,-0.003051
2061.2178,-0.002673
2063.0815,-0.002151
2064.9452,-0.002171
2066.8088,-0.001859
2068.6725,-0.001760
2070.5362,-0.002123
2072.3998,-0.002243
2074.2635,-0.001421
2076.1272,-0.001224
2077.9908,-0.001980
2079.8545,-0.002412
2081.7182,-0.002616
2083.5819,-0.002357
2085.4455,-0.002055
2087.3092,-0.002145
2089.1729,-0.002414
2091.0365,-0.002576
2092.9002,-0.002715
2094.7639,-0.002593
2096.6275,-0.001930
2098.4912,-0.001732
2100.3549,-0.002077
2102.2185,-0.002257
2104.0822,-0.002122
2105.9459,-0.002281
2107.8095,-0.002655
2109.6732,-0.002505
2111.5369,-0.002121
2113.4006,-0.002392
2115.2642,-0.002850
2117.1279,-0.002724
2118.9916,-0.002566
2120.8552,-0.002788
2122.7189,-0.002970
2124.5826,-0.002891
2126.4462,-0.003159
2128.3099,-0.003246
2130.1736,-0.002703
2132.0372,-0.002442
2133.9009,-0.002659
2135.7646,-0.002952
2137.6282,-0.002405
2139.4919,-0.001926
2141.3556,-0.001943
2143.2193,-0.001397
2145.0829,-0.001393
2146.9466,-0.001396
2148.8103,-0.001505
2150.6739,-0.002523
2152.5376,-0.002537
2154.4013,-0.001134
2156.2649,0.000380
2158.1286,0.001322
2159.9923,0.002097
2161.8559,0.002027
2163.7196,0.001987
2165.5833,0.001693
2167.4470,0.001077
2169.3106,0.001712
2171.1743,0.002107
2173.0380,0.001109
2174.9016,0.000291
2176.7653,0.000735
2178.6290,0.001381
2180.4926,0.001031
2182.3563,0.000414
2184.2200,0.000143
2186.0836,0.000373
2187.9473,0.000987
2189.8110,0.000956
2191.6746,0.000817
2193.5383,0.000862
2195.4020,0.000370
2197.2657,-0.000253
2199.1293,0.000026
2200.9930,0.000500
2202.8567,-0.000411
2204.7203,-0.001119
2206.5840,-0.000679
2208.4477,-0.000528
2210.3113,-0.000273
2212.1750,0.000226
2214.0387,0.000548
2215.9023,0.000345
2217.7660,0.000057
2219.6297,0.000193
2221.4934,-0.000031
2223.3570,-0.000234
2225.2207,-0.000415
2227.0844,-0.000534
2228.9480,-0.000428
2230.8117,-0.000697
2232.6754,-0.001157
2234.5390,-0.001478
2236.4027,-0.000917
2238.2664,-0.000286
2240.1300,-0.000824
2241.9937,-0.000896
2243.8574,-0.000913
2245.7210,-0.001634
2247.5847,-0.001591
2249.4484,-0.001230
2251.3121,-0.001114
2253.1757,-0.000885
2255.0394,-0.000892
2256.9031,-0.000981
2258.7667,-0.000823
2260.6304,-0.001047
2262.4941,-0.001166
2264.3577,-0.000684
2266.2214,-0.000216
2268.0851,-0.000203
2269.9487,-0.000404
2271.8124,-0.000695
2273.6761,-0.001105
2275.5397,-0.001271
2277.4034,-0.001487
2279.2671,-0.001385
2281.1308,-0.000846
2282.9944,-0.000524
2284.8581,-0.000774
2286.7218,-0.001108
2288.5854,-0.001091
2290.4491,-0.001085
2292.3128,-0.001452
2294.1764,-0.001945
2296.0401,-0.002187
2297.9038,-0.002293
2299.7674,-0.002197
2301.6311,-0.002095
2303.4948,-0.002357
2305.3585,-0.002339
2307.2221,-0.002120
2309.0858,-0.002333
2310.9495,-0.002169
2312.8131,-0.001705
2314.6768,-0.001919
2316.5405,-0.002219
2318.4041,-0.002003
2320.2678,-0.001718
2322.1315,-0.001704
2323.9951,-0.001664
2325.8588,-0.001931
2327.7225,-0.002617
2329.5861,-0.002932
2331.4498,-0.002848
2333.3135,-0.002779
2335.1772,-0.002753
2337.0408,-0.002736
2338.9045,-0.002714
2340.7682,-0.002557
2342.6318,-0.002204
2344.4955,-0.002184
2346.3592,-0.002672
2348.2228,-0.003251
2350.0865,-0.003788
2351.9502,-0.003823
2353.8138,-0.003316
2355.6775,-0.003116
2357.5412,-0.003225
2359.4049,-0.002833
2361.2685,-0.002112
2363.1322,-0.002171
2364.9959,-0.002319
2366.8595,-0.002431
2368.7232,-0.002275
2370.5869,-0.002181
2372.4505,-0.002783
2374.3142,-0.003019
2376.1779,-0.003000
2378.0415,-0.003120
2379.9052,-0.003006
2381.7689,-0.003067
2383.6325,-0.003224
2385.4962,-0.003169
2387.3599,-0.003181
2389.2236,-0.003287
2391.0872,-0.003174
2392.9509,-0.002928
2394.8146,-0.002886
2396.6782,-0.002975
2398.5419,-0.002909
2400.4056,-0.002865
2402.2692,-0.003016
2404.1329,-0.003124
2405.9966,-0.002851
2407.8602,-0.002362
2409.7239,-0.002449
2411.5876,-0.002915
2413.4512,-0.002876
2415.3149,-0.002565
2417.1786,-0.002220
2419.0423,-0.002117
2420.9059,-0.002490
2422.7696,-0.002580
2424.6333,-0.002255
2426.4969,-0.002179
2428.3606,-0.002302
2430.2243,-0.002258
2432.0879,-0.002248
2433.9516,-0.002241
2435.8153,-0.002068
2437.6789,-0.001928
2439.5426,-0.001956
2441.4063,-0.001972
2443.2700,-0.001940
2445.1336,-0.001975
2446.9973,-0.001823
2448.8610,-0.001505
2450.7246,-0.001402
2452.5883,-0.001623
2454.4520,-0.001645
2456.3156,-0.001591
2458.1793,-0.001629
2460.0430,-0.001852
2461.9066,-0.001788
2463.7703,-0.001538
2465.6340,-0.001545
2467.4976,-0.001284
2469.3613,-0.001059
2471.2250,-0.001320
2473.0887,-0.001598
2474.9523,-0.001594
2476.8160,-0.001539
2478.6797,-0.001452
2480.5433,-0.001494
2482.4070,-0.001548
2484.2707,-0.001390
2486.1343,-0.001179
2487.9980,-0.001068
2489.8617,-0.001067
2491.7253,-0.001075
2493.5890,-0.000952
2495.4527,-0.000775
2497.3164,-0.000507
2499.1800,-0.000439
2501.0437,-0.000776
2502.9074,-0.000749
2504.7710,-0.000637
2506.6347,-0.000824
2508.4984,-0.000687
2510.3620,-0.000572
2512.2257,-0.000753
2514.0894,-0.000820
2515.9530,-0.000718
2517.8167,-0.000290
2519.6804,-0.000260
2521.5440,-0.000402
2523.4077,-0.000413
2525.2714,-0.000366
2527.1351,-0.000358
2528.9987,-0.000417
2530.8624,-0.000503
2532.7261,-0.000468
2534.5897,-0.000261
2536.4534,-0.000142
2538.3171,0.000015
2540.1807,0.000153
2542.0444,0.000009
2543.9081,-0.000332
2545.7717,-0.000113
2547.6354,0.000145
2549.4991,-0.000165
2551.3627,0.000033
2553.2264,0.000149
2555.0901,0.000138
2556.9538,0.000146
2558.8174,-0.000083
2560.6811,0.000033
2562.5448,0.000377
2564.4084,0.000409
2566.2721,0.000415
2568.1358,0.000534
2569.9994,0.000696
2571.8631,0.000939
2573.7268,0.001033
2575.5904,0.000671
2577.4541,0.000417
2579.3178,0.000552
2581.1815,0.000866
2583.0451,0.000977
2584.9088,0.000828
2586.7725,0.000824
2588.6361,0.000826
2590.4998,0.000752
2592.3635,0.000943
2594.2271,0.001129
2596.0908,0.001238
2597.9545,0.001240
2599.8181,0.001319
2601.6818,0.001446
2603.5455,0.001570
2605.4091,0.001484
2607.2728,0.001389
2609.1365,0.001602
2611.0002,0.001901
2612.8638,0.001946
2614.7275,0.001899
2616.5912,0.001904
2618.4548,0.002025
2620.3185,0.002251
2622.1822,0.002259
2624.0458,0.002236
2625.9095,0.002258
2627.7732,0.002188
2629.6368,0.002190
2631.5005,0.002338
2633.3642,0.002690
2635.2279,0.002798
2637.0915,0.002650
2638.9552,0.002601
2640.8189,0.002742
2642.6825,0.002837
2644.5462,0.002918
2646.4099,0.002901
2648.2735,0.002988
2650.1372,0.003166
2652.0009,0.003149
2653.8645,0.002986
2655.7282,0.003032
2657.5919,0.003129
2659.4555,0.003124
2661.3192,0.002966
2663.1829,0.002823
2665.0466,0.002855
2666.9102,0.002960
2668.7739,0.002944
2670.6376,0.003110
2672.5012,0.003370
2674.3649,0.003307
2676.2286,0.003243
2678.0922,0.003284
2679.9559,0.003292
2681.8196,0.003426
2683.6832,0.003506
2685.5469,0.003559
2687.4106,0.003641
2689.2742,0.003737
2691.1379,0.003835
2693.0016,0.003859
2694.8653,0.003969
2696.7289,0.004071
2698.5926,0.004021
2700.4563,0.004128
2702.3199,0.004338
2704.1836,0.004546
2706.0473,0.004621
2707.9109,0.004671
2709.7746,0.004684
2711.6383,0.004738
2713.5019,0.004901
2715.3656,0.005155
2717.2293,0.005254
2719.0930,0.005134
2720.9566,0.005197
2722.8203,0.005355
2724.6840,0.005465
2726.5476,0.005587
2728.4113,0.005628
2730.2750,0.005746
2732.1386,0.005794
2734.0023,0.005933
2735.8660,0.006120
2737.7296,0.006025
2739.5933,0.006111
2741.4570,0.006299
2743.3206,0.006358
2745.1843,0.006643
2747.0480,0.007004
2748.9117,0.006986
2750.7753,0.006845
2752.6390,0.006934
2754.5027,0.007182
2756.3663,0.007495
2758.2300,0.007513
2760.0937,0.007413
2761.9573,0.007351
2763.8210,0.007331
2765.6847,0.007544
2767.5483,0.007905
2769.4120,0.008028
2771.2757,0.008027
2773.1394,0.008212
2775.0030,0.008366
2776.8667,0.008383
2778.7304,0.008461
2780.5940,0.008508
2782.4577,0.008640
2784.3214,0.008865
2786.1850,0.009218
2788.0487,0.009460
2789.9124,0.009575
2791.7760,0.009680
2793.6397,0.009638
2795.5034,0.009853
2797.3670,0.010149
2799.2307,0.010175
2801.0944,0.010316
2802.9581,0.010520
2804.8217,0.010747
2806.6854,0.010941
2808.5491,0.011205
2810.4127,0.011412
2812.2764,0.011596
2814.1401,0.011812
2816.0037,0.011835
2817.8674,0.011967
2819.7311,0.012191
2821.5947,0.012239
2823.4584,0.012451
2825.3221,0.012618
2827.1857,0.012823
2829.0494,0.013233
2830.9131,0.013503
2832.7768,0.013645
2834.6404,0.013809
2836.5041,0.014061
2838.3678,0.014316
2840.2314,0.014718
2842.0951,0.015272
2843.9588,0.015704
2845.8224,0.016241
2847.6861,0.016821
2849.5498,0.017136
2851.4134,0.017624
2853.2771,0.018024
2855.1408,0.018279
2857.0045,0.018427
2858.8681,0.018505
2860.7318,0.018535
2862.5955,0.018689
2864.4591,0.019013
2866.3228,0.019342
2868.1865,0.019677
2870.0501,0.020107
2871.9138,0.020450
2873.7775,0.020540
2875.6411,0.020629
2877.5048,0.020760
2879.3685,0.021017
2881.2321,0.021168
2883.0958,0.020853
2884.9595,0.020906
2886.8232,0.021223
2888.6868,0.021153
2890.5505,0.021125
2892.4142,0.021362
2894.2778,0.021588
2896.1415,0.021671
2898.0052,0.021822
2899.8688,0.022337
2901.7325,0.022677
2903.5962,0.022776
2905.4598,0.022877
2907.3235,0.023199
2909.1872,0.023836
2911.0509,0.024366
2912.9145,0.024688
2914.7782,0.025180
2916.6419,0.025857
2918.5055,0.026587
2920.3692,0.026864
2922.2329,0.026951
2924.0965,0.027176
2925.9602,0.027357
2927.8239,0.027289
2929.6875,0.026970
2931.5512,0.027006
2933.4149,0.027246
2935.2785,0.027074
2937.1422,0.026939
2939.0059,0.027034
2940.8696,0.026984
2942.7332,0.026637
2944.5969,0.026423
2946.4606,0.026346
2948.3242,0.026070
2950.1879,0.025819
2952.0516,0.025940
2953.9152,0.026191
2955.7789,0.026413
2957.6426,0.026529
2959.5062,0.026342
2961.3699,0.026104
2963.2336,0.025909
2965.0972,0.025606
2966.9609,0.025515
2968.8246,0.025668
2970.6883,0.025378
2972.5519,0.024691
2974.4156,0.024359
2976.2793,0.024189
2978.1429,0.024106
2980.0066,0.023796
2981.8703,0.023359
2983.7339,0.023225
2985.5976,0.023017
2987.4613,0.022733
2989.3249,0.022867
2991.1886,0.022639
2993.0523,0.022299
2994.9160,0.022197
2996.7796,0.022256
2998.6433,0.022118
3000.5070,0.022158
3002.3706,0.022292
3004.2343,0.022387
3006.0980,0.022489
3007.9616,0.022703
3009.8253,0.023064
3011.6890,0.023141
3013.5526,0.022992
3015.4163,0.023185
3017.2800,0.023471
3019.1436,0.023665
3021.0073,0.023950
3022.8710,0.024225
3024.7347,0.024537
3026.5983,0.024805
3028.4620,0.024950
3030.3257,0.025194
3032.1893,0.025525
3034.0530,0.025979
3035.9167,0.026141
3037.7803,0.026171
3039.6440,0.026634
3041.5077,0.027143
3043.3713,0.027275
3045.2350,0.027546
3047.0987,0.027816
3048.9624,0.028346
3050.8260,0.028804
3052.6897,0.028842
3054.5534,0.029203
3056.4170,0.029418
3058.2807,0.029045
3060.1444,0.029205
3062.0080,0.029764
3063.8717,0.030121
3065.7354,0.030306
3067.5990,0.030313
3069.4627,0.030476
3071.3264,0.030521
3073.1900,0.030659
3075.0537,0.031144
3076.9174,0.031381
3078.7811,0.031488
3080.6447,0.031546
3082.5084,0.031463
3084.3721,0.031541
3086.2357,0.031547
3088.0994,0.031412
3089.9631,0.031659
3091.8267,0.031612
3093.6904,0.031467
3095.5541,0.031512
3097.4177,0.031694
3099.2814,0.031852
3101.1451,0.031797
3103.0087,0.031745
3104.8724,0.031790
3106.7361,0.032089
3108.5998,0.032380
3110.4634,0.032396
3112.3271,0.032376
3114.1908,0.032518
3116.0544,0.032896
3117.9181,0.032902
3119.7818,0.032901
3121.6454,0.032825
3123.5091,0.032827
3125.3728,0.033376
3127.2364,0.033723
3129.1001,0.033787
3130.9638,0.034049
3132.8275,0.034637
3134.6911,0.035252
3136.5548,0.035257
3138.4185,0.035404
3140.2821,0.035611
3142.1458,0.035739
3144.0095,0.035769
3145.8731,0.036260
3147.7368,0.036650
3149.6005,0.036982
3151.4641,0.037657
3153.3278,0.038361
3155.1915,0.038525
3157.0551,0.038902
3158.9188,0.039614
3160.7825,0.039911
3162.6462,0.039989
3164.5098,0.040329
3166.3735,0.040713
3168.2372,0.040929
3170.1008,0.041110
3171.9645,0.041620
3173.8282,0.041977
3175.6918,0.042371
3177.5555,0.042547
3179.4192,0.042917
3181.2828,0.043438
3183.1465,0.043850
3185.0102,0.044094
3186.8739,0.044522
3188.7375,0.044961
3190.6012,0.045013
3192.4649,0.045097
3194.3285,0.045826
3196.1922,0.046053
3198.0559,0.045974
3199.9195,0.046232
3201.7832,0.046410
3203.6469,0.046744
3205.5105,0.047547
3207.3742,0.047554
3209.2379,0.047128
3211.1015,0.047634
3212.9652,0.048286
3214.8289,0.048398
3216.6926,0.048362
3218.5562,0.048709
3220.4199,0.049078
3222.2836,0.049169
3224.1472,0.049424
3226.0109,0.049613
3227.8746,0.049550
3229.7382,0.049230
3231.6019,0.049558
3233.4656,0.049820
3235.3292,0.050168
3237.1929,0.050842
3239.0566,0.051149
3240.9202,0.050894
3242.7839,0.051252
3244.6476,0.051711
3246.5113,0.051541
3248.3749,0.051320
3250.2386,0.051615
3252.1023,0.052122
3253.9659,0.052528
3255.8296,0.052800
3257.6933,0.052948
3259.5569,0.052852
3261.4206,0.053189
3263.2843,0.053735
3265.1479,0.053763
3267.0116,0.053539
3268.8753,0.053431
3270.7390,0.053350
3272.6026,0.053767
3274.4663,0.053886
3276.3300,0.053831
3278.1936,0.053386
3280.0573,0.053253
3281.9210,0.053189
3283.7846,0.053186
3285.6483,0.053276
3287.5120,0.053424
3289.3756,0.053077
3291.2393,0.052884
3293.1030,0.052858
3294.9666,0.052705
3296.8303,0.052242
3298.6940,0.052009
3300.5577,0.051765
3302.4213,0.051556
3304.2850,0.051254
3306.1487,0.051247
3308.0123,0.051413
3309.8760,0.051590
3311.7397,0.050904
3313.6033,0.050515
3315.4670,0.050336
3317.3307,0.050367
3319.1943,0.050456
3321.0580,0.050327
3322.9217,0.049925
3324.7854,0.049581
3326.6490,0.049454
3328.5127,0.049153
3330.3764,0.048919
3332.2400,0.048872
3334.1037,0.048858
3335.9674,0.049058
3337.8310,0.048944
3339.6947,0.049127
3341.5584,0.049091
3343.4220,0.048788
3345.2857,0.048350
3347.1494,0.048229
3349.0130,0.048756
3350.8767,0.048827
3352.7404,0.047997
3354.6041,0.048229
3356.4677,0.048781
3358.3314,0.048188
3360.1951,0.047310
3362.0587,0.046798
3363.9224,0.046615
3365.7861,0.046996
3367.6497,0.047251
3369.5134,0.046744
3371.3771,0.046211
3373.2407,0.046523
3375.1044,0.046465
3376.9681,0.046234
3378.8317,0.046336
3380.6954,0.046777
3382.5591,0.046429
3384.4228,0.046103
3386.2864,0.046243
3388.1501,0.045633
3390.0138,0.044795
3391.8774,0.045048
3393.7411,0.044974
3395.6048,0.044906
3397.4684,0.045084
3399.3321,0.045064
3401.1958,0.044745
3403.0594,0.044135
3404.9231,0.043341
3406.7868,0.043322
3408.6505,0.043391
3410.5141,0.043076
3412.3778,0.042447
3414.2415,0.042069
3416.1051,0.042087
3417.9688,0.042408
3419.8325,0.042649
3421.6961,0.042591
3423.5598,0.041767
3425.4235,0.041561
3427.2871,0.041365
3429.1508,0.040316
3431.0145,0.039875
3432.8781,0.040017
3434.7418,0.039657
3436.6055,0.039374
3438.4692,0.039819
3440.3328,0.039696
3442.1965,0.039045
3444.0602,0.038716
3445.9238,0.038309
3447.7875,0.038014
3449.6512,0.037630
3451.5148,0.037347
3453.3785,0.036887
3455.2422,0.036076
3457.1058,0.035770
3458.9695,0.035833
3460.8332,0.035454
3462.6969,0.035333
3464.5605,0.035169
3466.4242,0.034816
3468.2879,0.034640
3470.1515,0.034418
3472.0152,0.033833
3473.8789,0.033118
3475.7425,0.032289
3477.6062,0.031931
3479.4699,0.032525
3481.3335,0.032669
3483.1972,0.031623
3485.0609,0.030522
3486.9245,0.030259
3488.7882,0.030521
3490.6519,0.029981
3492.5156,0.029179
3494.3792,0.028899
3496.2429,0.028574
3498.1066,0.028302
3499.9702,0.028149
3501.8339,0.027609
3503.6976,0.027165
3505.5612,0.026398
3507.4249,0.025759
3509.2886,0.025733
3511.1522,0.025791
3513.0159,0.025270
3514.8796,0.024752
3516.7432,0.024631
3518.6069,0.024000
3520.4706,0.023169
3522.3343,0.023253
3524.1979,0.022595
3526.0616,0.021538
3527.9253,0.021505
3529.7889,0.021319
3531.6526,0.020798
3533.5163,0.020307
3535.3799,0.019555
3537.2436,0.019013
3539.1073,0.018783
3540.9709,0.018345
3542.8346,0.017994
3544.6983,0.018359
3546.5620,0.018060
3548.4256,0.016673
3550.2893,0.015917
3552.1530,0.015855
3554.0166,0.015688
3555.8803,0.015031
3557.7440,0.014444
3559.6076,0.014350
3561.4713,0.013781
3563.3350,0.013035
3565.1986,0.012596
3567.0623,0.011834
3568.9260,0.011101
3570.7896,0.011033
3572.6533,0.011207
3574.5170,0.011104
3576.3807,0.010204
3578.2443,0.008884
3580.1080,0.008407
3581.9717,0.008235
3583.8353,0.007684
3585.6990,0.007134
3587.5627,0.006751
3589.4263,0.006469
3591.2900,0.006366
3593.1537,0.005924
3595.0173,0.005041
3596.8810,0.004716
3598.7447,0.004662
3600.6084,0.004527
3602.4720,0.003887
3604.3357,0.002922
3606.1994,0.002416
3608.0630,0.001954
3609.9267,0.001792
3611.7904,0.001800
3613.6540,0.001653
3615.5177,0.001531
3617.3814,0.001154
3619.2450,0.000605
3621.1087,0.000152
3622.9724,0.000200
3624.8360,0.000032
3626.6997,-0.001152
3628.5634,-0.002460
3630.4271,-0.002505
3632.2907,-0.002236
3634.1544,-0.002312
3636.0181,-0.002049
3637.8817,-0.002150
3639.7454,-0.002692
3641.6091,-0.003088
3643.4727,-0.003635
3645.3364,-0.004411
3647.2001,-0.005481
3649.0637,-0.006223
3650.9274,-0.005921
3652.7911,-0.005508
3654.6547,-0.005542
3656.5184,-0.006224
3658.3821,-0.006674
3660.2458,-0.006528
3662.1094,-0.006645
3663.9731,-0.006823
3665.8368,-0.006988
3667.7004,-0.007414
3669.5641,-0.007899
3671.4278,-0.008056
3673.2914,-0.008688
3675.1551,-0.009297
3677.0188,-0.008581
3678.8824,-0.008216
3680.7461,-0.008583
3682.6098,-0.008546
3684.4735,-0.008711
3686.3371,-0.009342
3688.2008,-0.009524
3690.0645,-0.009274
3691.9281,-0.008894
3693.7918,-0.008460
3695.6555,-0.008386
3697.5191,-0.008733
3699.3828,-0.009085
3701.2465,-0.009325
3703.1101,-0.009114
3704.9738,-0.008807
3706.8375,-0.008848
3708.7011,-0.009072
3710.5648,-0.009559
3712.4285,-0.009624
3714.2922,-0.009529
3716.1558,-0.009509
3718.0195,-0.009343
3719.8832,-0.009400
3721.7468,-0.009480
3723.6105,-0.009279
3725.4742,-0.009385
3727.3378,-0.009606
3729.2015,-0.009378
3731.0652,-0.009588
3732.9288,-0.009983
3734.7925,-0.010040
3736.6562,-0.010023
3738.5199,-0.009531
3740.3835,-0.009279
3742.2472,-0.009697
3744.1109,-0.010678
3745.9745,-0.010840
3747.8382,-0.009853
3749.7019,-0.009673
3751.5655,-0.010154
3753.4292,-0.009750
3755.2929,-0.009255
3757.1565,-0.009443
3759.0202,-0.009487
3760.8839,-0.009526
3762.7475,-0.009807
3764.6112,-0.009691
3766.4749,-0.009505
3768.3386,-0.009419
3770.2022,-0.009578
3772.0659,-0.009549
3773.9296,-0.009097
3775.7932,-0.009169
3777.6569,-0.009565
3779.5206,-0.009515
3781.3842,-0.009305
3783.2479,-0.009328
3785.1116,-0.009489
3786.9752,-0.009316
3788.8389,-0.009113
3790.7026,-0.009149
3792.5662,-0.009196
3794.4299,-0.009410
3796.2936,-0.009633
3798.1573,-0.009615
3800.0209,-0.009906
3801.8846,-0.010188
3803.7483,-0.009576
3805.6119,-0.009265
3807.4756,-0.009633
3809.3393,-0.009439
3811.2029,-0.009184
3813.0666,-0.009291
3814.9303,-0.009801
3816.7939,-0.010217
3818.6576,-0.009574
3820.5213,-0.009255
3822.3850,-0.009708
3824.2486,-0.009603
3826.1123,-0.009555
3827.9760,-0.009460
3829.8396,-0.009144
3831.7033,-0.009483
3833.5670,-0.009604
3835.4306,-0.009309
3837.2943,-0.009568
3839.1580,-0.009894
3841.0216,-0.010217
3842.8853,-0.009994
3844.7490,-0.009861
3846.6126,-0.009871
3848.4763,-0.009804
3850.3400,-0.009979
3852.2037,-0.010272
3854.0673,-0.010550
3855.9310,-0.009832
3857.7947,-0.009079
3859.6583,-0.009242
3861.5220,-0.009604
3863.3857,-0.009678
3865.2493,-0.009598
3867.1130,-0.009770
3868.9767,-0.010076
3870.8403,-0.009944
3872.7040,-0.009085
3874.5677,-0.009181
3876.4314,-0.009508
3878.2950,-0.009624
3880.1587,-0.009816
3882.0224,-0.009766
3883.8860,-0.009501
3885.7497,-0.009290
3887.6134,-0.009345
3889.4770,-0.009520
3891.3407,-0.009817
3893.2044,-0.009846
3895.0680,-0.009504
3896.9317,-0.009546
3898.7954,-0.009777
3900.6590,-0.010009
3902.5227,-0.010164
3904.3864,-0.010151
3906.2501,-0.009670
3908.1137,-0.009340
3909.9774,-0.009303
3911.8411,-0.009482
3913.7047,-0.009606
3915.5684,-0.009299
3917.4321,-0.009335
3919.2957,-0.009615
3921.1594,-0.009262
3923.0231,-0.008991
3924.8867,-0.009182
3926.7504,-0.009578
3928.6141,-0.009662
3930.4777,-0.009416
3932.3414,-0.009397
3934.2051,-0.009649
3936.0688,-0.009439
3937.9324,-0.009060
3939.7961,-0.009036
3941.6598,-0.009390
3943.5234,-0.009425
3945.3871,-0.009128
3947.2508,-0.009013
3949.1144,-0.009280
3950.9781,-0.009498
3952.8418,-0.009243
3954.7054,-0.009104
3956.5691,-0.009280
3958.4328,-0.009318
3960.2965,-0.009424
3962.1601,-0.009367
3964.0238,-0.009245
3965.8875,-0.009367
3967.7511,-0.009292
3969.6148,-0.008895
3971.4785,-0.009039
3973.3421,-0.009161
3975.2058,-0.009405
3977.0695,-0.009735
3978.9331,-0.009647
3980.7968,-0.009365
3982.6605,-0.009276
3984.5241,-0.009393
3986.3878,-0.009513
3988.2515,-0.009246
3990.1152,-0.008994
3991.9788,-0.009166
3993.8425,-0.009485
3995.7062,-0.009222
3997.5698,-0.009286
3999.4335,-0.009573
