Wavenumber,Intensity
650.4205,0.086611
652.2841,0.085931
654.1478,0.085367
656.0115,0.085530
657.8751,0.087174
659.7388,0.085615
661.6025,0.084957
663.4661,0.084807
665.3298,0.083278
667.1935,0.082858
669.0571,0.083470
670.9208,0.081649
672.7845,0.080757
674.6481,0.081196
676.5118,0.081548
678.3755,0.080536
680.2392,0.079644
682.1028,0.078441
683.9665,0.077963
685.8302,0.077738
687.6938,0.077468
689.5575,0.076313
691.4212,0.076533
693.2848,0.075823
695.1485,0.074126
697.0122,0.074328
698.8758,0.074839
700.7395,0.074669
702.6032,0.074060
704.4669,0.072425
706.3305,0.071589
708.1942,0.070228
710.0579,0.068560
711.9215,0.067787
713.7852,0.068000
715.6489,0.067647
717.5125,0.066462
719.3762,0.065769
721.2399,0.066235
723.1035,0.066154
724.9672,0.064705
726.8309,0.063658
728.6945,0.063482
730.5582,0.063306
732.4219,0.062424
734.2856,0.061044
736.1492,0.060692
738.0129,0.061466
739.8766,0.061451
741.7402,0.060635
743.6039,0.060090
745.4676,0.059587
747.3312,0.059287
749.1949,0.058935
751.0586,0.058143
752.9222,0.057225
754.7859,0.056944
756.6496,0.056738
758.5132,0.056394
760.3769,0.056004
762.2406,0.055357
764.1043,0.054904
765.9679,0.055032
767.8316,0.054863
769.6953,0.054434
771.5589,0.053906
773.4226,0.053308
775.2863,0.052917
777.1499,0.052550
779.0136,0.052196
780.8773,0.051807
782.7409,0.051739
784.6046,0.051550
786.4683,0.050886
788.3320,0.050325
790.1956,0.049928
792.0593,0.049927
793.9230,0.049712
795.7866,0.049081
797.6503,0.048806
799.5140,0.048557
801.3776,0.048406
803.2413,0.048404
805.1050,0.048111
806.9686,0.047811
808.8323,0.047710
810.6960,0.047490
812.5596,0.047057
814.4233,0.046611
816.2870,0.046356
818.1507,0.046085
820.0143,0.045329
821.8780,0.044515
823.7417,0.044363
825.6053,0.044233
827.4690,0.043762
829.3327,0.043373
831.1963,0.043008
833.0600,0.042641
834.9237,0.042364
836.7873,0.042041
838.6510,0.041578
840.5147,0.040950
842.3784,0.040480
844.2420,0.040397
846.1057,0.040283
847.9694,0.040145
849.8330,0.039936
851.6967,0.039571
853.5604,0.039475
855.4240,0.039484
857.2877,0.039293
859.1514,0.039181
861.0150,0.039245
862.8787,0.039260
864.7424,0.039125
866.6060,0.039206
868.4697,0.039374
870.3334,0.039436
872.1971,0.039561
874.0607,0.039563
875.9244,0.039287
877.7881,0.039160
879.6517,0.039202
881.5154,0.039045
883.3791,0.038880
885.2427,0.038772
887.1064,0.038595
888.9701,0.038549
890.8337,0.038526
892.6974,0.038583
894.5611,0.038642
896.4247,0.038589
898.2884,0.038526
900.1521,0.038537
902.0158,0.038535
903.8794,0.038545
905.7431,0.038723
907.6068,0.039052
909.4704,0.039235
911.3341,0.039477
913.1978,0.039807
915.0614,0.040050
916.9251,0.040189
918.7888,0.040253
920.6524,0.040171
922.5161,0.040161
924.3798,0.040303
926.2435,0.040352
928.1071,0.040382
929.9708,0.040358
931.8345,0.040327
933.6981,0.040445
935.5618,0.040623
937.4255,0.040723
939.2891,0.040839
941.1528,0.041028
943.0165,0.041279
944.8801,0.041543
946.7438,0.041786
948.6075,0.042092
950.4711,0.042440
952.3348,0.042819
954.1985,0.043397
956.0622,0.044130
957.9258,0.044791
959.7895,0.045408
961.6532,0.046074
963.5168,0.046668
965.3805,0.047135
967.2442,0.047522
969.1078,0.047723
970.9715,0.047719
972.8352,0.047642
974.6988,0.047679
976.5625,0.047802
978.4262,0.048000
980.2899,0.048357
982.1535,0.048801
984.0172,0.049264
985.8809,0.049730
987.7445,0.050283
989.6082,0.050981
991.4719,0.051649
993.3355,0.052425
995.1992,0.053282
997.0629,0.054017
998.9265,0.054663
1000.7902,0.055306
1002.6539,0.056094
1004.5175,0.057059
1006.3812,0.058087
1008.2449,0.059189
1010.1086,0.060378
1011.9722,0.061635
1013.8359,0.062852
1015.6996,0.063981
1017.5632,0.065011
1019.4269,0.065951
1021.2906,0.066776
1023.1542,0.067438
1025.0179,0.067980
1026.8816,0.068526
1028.7452,0.068971
1030.6089,0.069340
1032.4726,0.069646
1034.3362,0.069898
1036.1999,0.070200
1038.0636,0.070527
1039.9273,0.070684
1041.7909,0.070730
1043.6546,0.070750
1045.5183,0.070850
1047.3819,0.070989
1049.2456,0.071080
1051.1093,0.071082
1052.9729,0.071046
1054.8366,0.071002
1056.7003,0.070944
1058.5639,0.070751
1060.4276,0.070686
1062.2913,0.070600
1064.1550,0.070441
1066.0186,0.070320
1067.8823,0.070245
1069.7460,0.070193
1071.6096,0.069983
1073.4733,0.069621
1075.3370,0.069316
1077.2006,0.068849
1079.0643,0.068127
1080.9280,0.067109
1082.7916,0.065953
1084.6553,0.064711
1086.5190,0.063335
1088.3826,0.061941
1090.2463,0.060731
1092.1100,0.059675
1093.9737,0.058683
1095.8373,0.057817
1097.7010,0.057140
1099.5647,0.056498
1101.4283,0.055834
1103.2920,0.055215
1105.1557,0.054646
1107.0193,0.054113
1108.8830,0.053765
1110.7467,0.053527
1112.6103,0.053304
1114.4740,0.053062
1116.3377,0.052670
1118.2014,0.052224
1120.0650,0.051745
1121.9287,0.051196
1123.7924,0.050661
1125.6560,0.050123
1127.5197,0.049519
1129.3834,0.048871
1131.2470,0.048271
1133.1107,0.047629
1134.9744,0.046976
1136.8380,0.046421
1138.7017,0.045992
1140.5654,0.045605
1142.4290,0.045396
1144.2927,0.045368
1146.1564,0.045398
1148.0201,0.045490
1149.8837,0.045667
1151.7474,0.045915
1153.6111,0.046088
1155.4747,0.046138
1157.3384,0.046118
1159.2021,0.045998
1161.0657,0.045882
1162.9294,0.045753
1164.7931,0.045518
1166.6567,0.045251
1168.5204,0.044907
1170.3841,0.044415
1172.2477,0.043749
1174.1114,0.042967
1175.9751,0.042255
1177.8388,0.041647
1179.7024,0.041291
1181.5661,0.041128
1183.4298,0.041139
1185.2934,0.041359
1187.1571,0.041724
1189.0208,0.042113
1190.8844,0.042573
1192.7481,0.043058
1194.6118,0.043615
1196.4754,0.044283
1198.3391,0.044938
1200.2028,0.045595
1202.0665,0.046308
1203.9301,0.047047
1205.7938,0.047710
1207.6575,0.048206
1209.5211,0.048592
1211.3848,0.048994
1213.2485,0.049567
1215.1121,0.050148
1216.9758,0.050712
1218.8395,0.051296
1220.7031,0.051890
1222.5668,0.052434
1224.4305,0.052925
1226.2941,0.053490
1228.1578,0.053939
1230.0215,0.054114
1231.8852,0.054299
1233.7488,0.054470
1235.6125,0.054508
1237.4762,0.054389
1239.3398,0.054120
1241.2035,0.053699
1243.0672,0.053175
1244.9308,0.052642
1246.7945,0.052086
1248.6582,0.051419
1250.5218,0.050770
1252.3855,0.050200
1254.2492,0.049614
1256.1129,0.049041
1257.9765,0.048582
1259.8402,0.048199
1261.7039,0.047838
1263.5675,0.047573
1265.4312,0.047329
1267.2949,0.047062
1269.1585,0.046922
1271.0222,0.046794
1272.8859,0.046627
1274.7495,0.046497
1276.6132,0.046453
1278.4769,0.046437
1280.3405,0.046374
1282.2042,0.046324
1284.0679,0.046324
1285.9316,0.046343
1287.7952,0.046437
1289.6589,0.046489
1291.5226,0.046529
1293.3862,0.046632
1295.2499,0.046779
1297.1136,0.046894
1298.9772,0.047041
1300.8409,0.047199
1302.7046,0.047307
1304.5682,0.047360
1306.4319,0.047445
1308.2956,0.047482
1310.1592,0.047429
1312.0229,0.047441
1313.8866,0.047425
1315.7503,0.047200
1317.6139,0.046956
1319.4776,0.046749
1321.3413,0.046453
1323.2049,0.046122
1325.0686,0.045884
1326.9323,0.045701
1328.7959,0.045578
1330.6596,0.045545
1332.5233,0.045523
1334.3869,0.045414
1336.2506,0.045432
1338.1143,0.045724
1339.9780,0.046119
1341.8416,0.046046
1343.7053,0.045848
1345.5690,0.045658
1347.4326,0.045575
1349.2963,0.045595
1351.1600,0.045586
1353.0236,0.045756
1354.8873,0.046008
1356.7510,0.046015
1358.6146,0.046126
1360.4783,0.046771
1362.3420,0.048171
1364.2056,0.049037
1366.0693,0.049233
1367.9330,0.049804
1369.7967,0.050301
1371.6603,0.050801
1373.5240,0.052128
1375.3877,0.053160
1377.2513,0.053525
1379.1150,0.054029
1380.9787,0.054413
1382.8423,0.054553
1384.7060,0.054834
1386.5697,0.055780
1388.4333,0.056042
1390.2970,0.055287
1392.1607,0.054960
1394.0244,0.055528
1395.8880,0.055886
1397.7517,0.055754
1399.6154,0.055500
1401.4790,0.054470
1403.3427,0.053904
1405.2064,0.053717
1407.0700,0.053047
1408.9337,0.052238
1410.7974,0.051740
1412.6610,0.051199
1414.5247,0.050440
1416.3884,0.050091
1418.2520,0.051103
1420.1157,0.051322
1421.9794,0.050355
1423.8431,0.050341
1425.7067,0.050259
1427.5704,0.050318
1429.4341,0.051274
1431.2977,0.051913
1433.1614,0.052094
1435.0251,0.053481
1436.8887,0.055966
1438.7524,0.055876
1440.6161,0.055247
1442.4797,0.055365
1444.3434,0.055474
1446.2071,0.055614
1448.0707,0.056049
1449.9344,0.055543
1451.7981,0.054535
1453.6618,0.053626
1455.5254,0.054163
1457.3891,0.055539
1459.2528,0.053655
1461.1164,0.051346
1462.9801,0.050652
1464.8438,0.051027
1466.7074,0.049911
1468.5711,0.048145
1470.4348,0.047480
1472.2984,0.048293
1474.1621,0.048079
1476.0258,0.047490
1477.8895,0.047027
1479.7531,0.047035
1481.6168,0.047729
1483.4805,0.048104
1485.3441,0.048744
1487.2078,0.050896
1489.0715,0.054443
1490.9351,0.056769
1492.7988,0.056584
1494.6625,0.057690
1496.5261,0.061386
1498.3898,0.064262
1500.2535,0.064859
1502.1171,0.064686
1503.9808,0.065244
1505.8445,0.069751
1507.7082,0.075837
1509.5718,0.075274
1511.4355,0.074953
1513.2992,0.075426
1515.1628,0.076190
1517.0265,0.076987
1518.8902,0.076703
1520.7538,0.077691
1522.6175,0.078510
1524.4812,0.078177
1526.3448,0.078509
1528.2085,0.078391
1530.0722,0.077726
1531.9359,0.077829
1533.7995,0.078543
1535.6632,0.077246
1537.5269,0.076442
1539.3905,0.077225
1541.2542,0.077029
1543.1179,0.075430
1544.9815,0.074016
1546.8452,0.071925
1548.7089,0.070304
1550.5725,0.068451
1552.4362,0.066248
1554.2999,0.064259
1556.1635,0.062441
1558.0272,0.062621
1559.8909,0.061315
1561.7546,0.058026
1563.6182,0.056539
1565.4819,0.055305
1567.3456,0.054184
1569.2092,0.053842
1571.0729,0.052545
1572.9366,0.051118
1574.8002,0.051121
1576.6639,0.051577
1578.5276,0.050569
1580.3912,0.049836
1582.2549,0.049624
1584.1186,0.049640
1585.9822,0.049866
1587.8459,0.050403
1589.7096,0.051128
1591.5733,0.051842
1593.4369,0.052819
1595.3006,0.054078
1597.1643,0.055281
1599.0279,0.056579
1600.8916,0.058276
1602.7553,0.060102
1604.6189,0.062013
1606.4826,0.064213
1608.3463,0.066669
1610.2099,0.068849
1612.0736,0.070546
1613.9373,0.072168
1615.8010,0.075105
1617.6646,0.078054
1619.5283,0.078857
1621.3920,0.079970
1623.2556,0.082162
1625.1193,0.083471
1626.9830,0.084044
1628.8466,0.084379
1630.7103,0.084311
1632.5740,0.084308
1634.4376,0.084903
1636.3013,0.084742
1638.1650,0.083205
1640.0286,0.082001
1641.8923,0.080746
1643.7560,0.079638
1645.6197,0.078819
1647.4833,0.077112
1649.3470,0.075010
1651.2107,0.073870
1653.0743,0.072382
1654.9380,0.068995
1656.8017,0.066800
1658.6653,0.064682
1660.5290,0.062348
1662.3927,0.059958
1664.2563,0.057430
1666.1200,0.055378
1667.9837,0.053597
1669.8474,0.051247
1671.7110,0.048791
1673.5747,0.047095
1675.4384,0.045087
1677.3020,0.042505
1679.1657,0.040925
1681.0294,0.038995
1682.8930,0.037389
1684.7567,0.034659
1686.6204,0.031531
1688.4840,0.029941
1690.3477,0.027628
1692.2114,0.025359
1694.0750,0.023754
1695.9387,0.021390
1697.8024,0.018675
1699.6661,0.017312
1701.5297,0.014425
1703.3934,0.013492
1705.2571,0.012820
1707.1207,0.011221
1708.9844,0.010449
1710.8481,0.010018
1712.7117,0.009566
1714.5754,0.009120
1716.4391,0.008440
1718.3027,0.007548
1720.1664,0.007022
1722.0301,0.007177
1723.8937,0.007023
1725.7574,0.006828
1727.6211,0.006729
1729.4848,0.006610
1731.3484,0.006603
1733.2121,0.006890
1735.0758,0.006073
1736.9394,0.005773
1738.8031,0.006228
1740.6668,0.006002
1742.5304,0.005860
1744.3941,0.005641
1746.2578,0.005378
1748.1214,0.005223
1749.9851,0.004828
1751.8488,0.004287
1753.7125,0.004013
1755.5761,0.004032
1757.4398,0.003645
1759.3035,0.003541
1761.1671,0.003640
1763.0308,0.003185
1764.8945,0.003189
1766.7581,0.003398
1768.6218,0.003176
1770.4855,0.003166
1772.3491,0.002913
1774.2128,0.002317
1776.0765,0.002722
1777.9401,0.003049
1779.8038,0.003130
1781.6675,0.002939
1783.5312,0.002813
1785.3948,0.002680
1787.2585,0.002750
1789.1222,0.002993
1790.9858,0.002971
1792.8495,0.002529
1794.7132,0.002423
1796.5768,0.002752
1798.4405,0.002977
1800.3042,0.002862
1802.1678,0.002659
1804.0315,0.002647
1805.8952,0.002678
1807.7589,0.002756
1809.6225,0.002700
1811.4862,0.002478
1813.3499,0.002403
1815.2135,0.002518
1817.0772,0.002575
1818.9409,0.002577
1820.8045,0.002684
1822.6682,0.002841
1824.5319,0.002793
1826.3955,0.002613
1828.2592,0.002761
1830.1229,0.002594
1831.9865,0.002252
1833.8502,0.002428
1835.7139,0.002486
1837.5776,0.002446
1839.4412,0.002257
1841.3049,0.002327
1843.1686,0.002769
1845.0322,0.002831
1846.8959,0.002722
1848.7596,0.002549
1850.6232,0.002105
1852.4869,0.002212
1854.3506,0.002509
1856.2142,0.002520
1858.0779,0.002373
1859.9416,0.002428
1861.8052,0.002371
1863.6689,0.002161
1865.5326,0.002152
1867.3963,0.002629
1869.2599,0.002637
1871.1236,0.002442
1872.9873,0.002444
1874.8509,0.002244
1876.7146,0.002154
1878.5783,0.002380
1880.4419,0.002378
1882.3056,0.002173
1884.1693,0.002236
1886.0329,0.002366
1887.8966,0.002223
1889.7603,0.001932
1891.6240,0.002085
1893.4876,0.002540
1895.3513,0.002448
1897.2150,0.002382
1899.0786,0.002437
1900.9423,0.002247
1902.8060,0.001922
1904.6696,0.001821
1906.5333,0.001940
1908.3970,0.002263
1910.2606,0.002268
1912.1243,0.001921
1913.9880,0.001862
1915.8516,0.002040
1917.7153,0.002053
1919.5790,0.001655
1921.4427,0.001937
1923.3063,0.002422
1925.1700,0.001884
1927.0337,0.001293
1928.8973,0.001466
1930.7610,0.002089
1932.6247,0.001984
1934.4883,0.001507
1936.3520,0.001540
1938.2157,0.001907
1940.0793,0.001692
1941.9430,0.001367
1943.8067,0.001080
1945.6704,0.001178
1947.5340,0.001092
1949.3977,0.000820
1951.2614,0.001356
1953.1250,0.001325
1954.9887,0.000326
1956.8524,-0.000141
1958.7160,-0.000525
1960.5797,-0.000084
1962.4434,0.001047
1964.3070,0.000739
1966.1707,-0.000372
1968.0344,-0.000400
1969.8980,0.000246
1971.7617,0.000167
1973.6254,0.000245
1975.4891,0.001297
1977.3527,0.000935
1979.2164,0.000862
1981.0801,0.001161
1982.9437,0.000588
1984.8074,0.000573
1986.6711,0.001121
1988.5347,0.000901
1990.3984,0.000267
1992.2621,-0.000422
1994.1257,-0.000355
1995.9894,0.000909
1997.8531,0.001543
1999.7167,0.000373
2001.5804,-0.000240
2003.4441,-0.000137
2005.3078,-0.000671
2007.1714,-0.000470
2009.0351,0.000718
2010.8988,-0.000128
2012.7624,-0.001174
2014.6261,-0.000942
2016.4898,-0.001017
2018.3534,-0.001447
2020.2171,-0.001168
2022.0808,-0.000185
2023.9444,0.000221
2025.8081,-0.000118
2027.6718,0.000123
2029.5355,0.000667
2031.3991,-0.000471
2033.2628,-0.001566
2035.1265,-0.001378
2036.9901,-0.000278
2038.8538,0.001180
2040.7175,0.001417
2042.5811,0.001801
2044.4448,0.001520
2046.3085,0.000928
2048.1721,0.001917
2050.0358,0.002365
2051.8995,0.001925
2053.7631,0.001962
2055.6268,0.001876
2057.4905,0.001568
2059.3542,0.001789
2061.2178,0.002397
2063.0815,0.002552
2064.9452,0.002416
2066.8088,0.002337
2068.6725,0.002587
2070.5362,0.002606
2072.3998,0.002197
2074.2635,0.002341
2076.1272,0.002993
2077.9908,0.002867
2079.8545,0.002675
2081.7182,0.003095
2083.5819,0.003297
2085.4455,0.002965
2087.3092,0.002725
2089.1729,0.002682
2091.0365,0.002651
2092.9002,0.002413
2094.7639,0.002352
2096.6275,0.002629
2098.4912,0.002787
2100.3549,0.002696
2102.2185,0.003097
2104.0822,0.003524
2105.9459,0.003420
2107.8095,0.003102
2109.6732,0.002678
2111.5369,0.002355
2113.4006,0.002236
2115.2642,0.002655
2117.1279,0.003223
2118.9916,0.003469
2120.8552,0.003428
2122.7189,0.002887
2124.5826,0.002566
2126.4462,0.002506
2128.3099,0.002412
2130.1736,0.002213
2132.0372,0.001871
2133.9009,0.001298
2135.7646,0.000589
2137.6282,0.000159
2139.4919,-0.000003
2141.3556,-0.000513
2143.2193,-0.000996
2145.0829,-0.000746
2146.9466,0.000529
2148.8103,0.000653
2150.6739,-0.000088
2152.5376,-0.001642
2154.4013,-0.003155
2156.2649,-0.001823
2158.1286,-0.000615
2159.9923,0.000019
2161.8559,0.001074
2163.7196,0.000851
2165.5833,0.000440
2167.4470,0.000838
2169.3106,0.000748
2171.1743,0.000144
2173.0380,-0.000050
2174.9016,0.000811
2176.7653,0.001941
2178.6290,0.001630
2180.4926,0.001444
2182.3563,0.002098
2184.2200,0.002271
2186.0836,0.002143
2187.9473,0.000942
2189.8110,0.000534
2191.6746,0.002148
2193.5383,0.002940
2195.4020,0.002634
2197.2657,0.001879
2199.1293,0.000942
2200.9930,0.001051
2202.8567,0.002032
2204.7203,0.002589
2206.5840,0.002633
2208.4477,0.001634
2210.3113,0.001887
2212.1750,0.003371
2214.0387,0.003264
2215.9023,0.002294
2217.7660,0.002472
2219.6297,0.002623
2221.4934,0.002706
2223.3570,0.002859
2225.2207,0.002620
2227.0844,0.002706
2228.9480,0.003278
2230.8117,0.003617
2232.6754,0.002936
2234.5390,0.002091
2236.4027,0.002629
2238.2664,0.003833
2240.1300,0.004189
2241.9937,0.003782
2243.8574,0.003945
2245.7210,0.004257
2247.5847,0.003645
2249.4484,0.003462
2251.3121,0.003948
2253.1757,0.003731
2255.0394,0.003522
2256.9031,0.003522
2258.7667,0.004029
2260.6304,0.004377
2262.4941,0.003988
2264.3577,0.004128
2266.2214,0.004760
2268.0851,0.005078
2269.9487,0.005211
2271.8124,0.004519
2273.6761,0.003876
2275.5397,0.004315
2277.4034,0.005029
2279.2671,0.005401
2281.1308,0.005709
2282.9944,0.005833
2284.8581,0.005768
2286.7218,0.005791
2288.5854,0.005673
2290.4491,0.005438
2292.3128,0.005237
2294.1764,0.005213
2296.0401,0.005389
2297.9038,0.005518
2299.7674,0.005575
2301.6311,0.005276
2303.4948,0.005007
2305.3585,0.005159
2307.2221,0.005396
2309.0858,0.005192
2310.9495,0.005085
2312.8131,0.005402
2314.6768,0.005651
2316.5405,0.005518
2318.4041,0.005499
2320.2678,0.005814
2322.1315,0.005531
2323.9951,0.004998
2325.8588,0.004829
2327.7225,0.004832
2329.5861,0.004957
2331.4498,0.005275
2333.3135,0.005292
2335.1772,0.004721
2337.0408,0.004576
2338.9045,0.005234
2340.7682,0.005543
2342.6318,0.005019
2344.4955,0.004536
2346.3592,0.004448
2348.2228,0.004445
2350.0865,0.004487
2351.9502,0.004354
2353.8138,0.004596
2355.6775,0.004785
2357.5412,0.003941
2359.4049,0.003955
2361.2685,0.004546
2363.1322,0.004594
2364.9959,0.004733
2366.8595,0.004959
2368.7232,0.004921
2370.5869,0.005124
2372.4505,0.005340
2374.3142,0.005848
2376.1779,0.005912
2378.0415,0.005658
2379.9052,0.005431
2381.7689,0.005383
2383.6325,0.005435
2385.4962,0.005419
2387.3599,0.005582
2389.2236,0.005610
2391.0872,0.005536
2392.9509,0.005418
2394.8146,0.005305
2396.6782,0.005356
2398.5419,0.005366
2400.4056,0.005440
2402.2692,0.005710
2404.1329,0.006037
2405.9966,0.006025
2407.8602,0.005888
2409.7239,0.005800
2411.5876,0.005749
2413.4512,0.005683
2415.3149,0.005670
2417.1786,0.005916
2419.0423,0.006036
2420.9059,0.006031
2422.7696,0.006066
2424.6333,0.005942
2426.4969,0.005844
2428.3606,0.005822
2430.2243,0.005935
2432.0879,0.006099
2433.9516,0.006076
2435.8153,0.006296
2437.6789,0.006573
2439.5426,0.006327
2441.4063,0.006238
2443.2700,0.006291
2445.1336,0.006275
2446.9973,0.006182
2448.8610,0.006198
2450.7246,0.006356
2452.5883,0.006683
2454.4520,0.006778
2456.3156,0.006497
2458.1793,0.006361
2460.0430,0.006470
2461.9066,0.006563
2463.7703,0.006697
2465.6340,0.006592
2467.4976,0.006505
2469.3613,0.006475
2471.2250,0.006386
2473.0887,0.006479
2474.9523,0.006650
2476.8160,0.006578
2478.6797,0.006436
2480.5433,0.006570
2482.4070,0.006817
2484.2707,0.007014
2486.1343,0.006998
2487.9980,0.006906
2489.8617,0.007083
2491.7253,0.007057
2493.5890,0.007342
2495.4527,0.007521
2497.3164,0.007413
2499.1800,0.007333
2501.0437,0.007122
2502.9074,0.006839
2504.7710,0.006913
2506.6347,0.007117
2508.4984,0.007330
2510.3620,0.007526
2512.2257,0.007451
2514.0894,0.007488
2515.9530,0.007843
2517.8167,0.007669
2519.6804,0.007199
2521.5440,0.007470
2523.4077,0.007880
2525.2714,0.007586
2527.1351,0.007470
2528.9987,0.007775
2530.8624,0.008037
2532.7261,0.008034
2534.5897,0.008021
2536.4534,0.007937
2538.3171,0.007851
2540.1807,0.007967
2542.0444,0.008241
2543.9081,0.008277
2545.7717,0.008142
2547.6354,0.008141
2549.4991,0.008246
2551.3627,0.008222
2553.2264,0.008294
2555.0901,0.008353
2556.9538,0.008164
2558.8174,0.008459
2560.6811,0.008751
2562.5448,0.008554
2564.4084,0.008500
2566.2721,0.008271
2568.1358,0.008457
2569.9994,0.008790
2571.8631,0.008884
2573.7268,0.008895
2575.5904,0.008818
2577.4541,0.008826
2579.3178,0.008873
2581.1815,0.008672
2583.0451,0.008751
2584.9088,0.009003
2586.7725,0.008950
2588.6361,0.008920
2590.4998,0.009169
2592.3635,0.009304
2594.2271,0.009426
2596.0908,0.009306
2597.9545,0.009482
2599.8181,0.009679
2601.6818,0.009592
2603.5455,0.009854
2605.4091,0.010233
2607.2728,0.010175
2609.1365,0.009999
2611.0002,0.009773
2612.8638,0.009795
2614.7275,0.009888
2616.5912,0.009797
2618.4548,0.009948
2620.3185,0.010315
2622.1822,0.010531
2624.0458,0.010579
2625.9095,0.010697
2627.7732,0.010699
2629.6368,0.010665
2631.5005,0.010792
2633.3642,0.010703
2635.2279,0.010696
2637.0915,0.010698
2638.9552,0.010812
2640.8189,0.011138
2642.6825,0.011282
2644.5462,0.011161
2646.4099,0.011092
2648.2735,0.011158
2650.1372,0.011255
2652.0009,0.011267
2653.8645,0.011410
2655.7282,0.011411
2657.5919,0.011346
2659.4555,0.011237
2661.3192,0.011271
2663.1829,0.011417
2665.0466,0.011345
2666.9102,0.011380
2668.7739,0.011491
2670.6376,0.011420
2672.5012,0.011363
2674.3649,0.011351
2676.2286,0.011452
2678.0922,0.011558
2679.9559,0.011485
2681.8196,0.011290
2683.6832,0.011458
2685.5469,0.011662
2687.4106,0.011678
2689.2742,0.011679
2691.1379,0.011777
2693.0016,0.011950
2694.8653,0.012025
2696.7289,0.012110
2698.5926,0.012229
2700.4563,0.012186
2702.3199,0.012138
2704.1836,0.012335
2706.0473,0.012535
2707.9109,0.012510
2709.7746,0.012475
2711.6383,0.012552
2713.5019,0.012586
2715.3656,0.012676
2717.2293,0.012840
2719.0930,0.012788
2720.9566,0.012849
2722.8203,0.013016
2724.6840,0.013067
2726.5476,0.013293
2728.4113,0.013572
2730.2750,0.013393
2732.1386,0.013344
2734.0023,0.013519
2735.8660,0.013594
2737.7296,0.013706
2739.5933,0.013834
2741.4570,0.013776
2743.3206,0.013809
2745.1843,0.014021
2747.0480,0.014127
2748.9117,0.014336
2750.7753,0.014423
2752.6390,0.014337
2754.5027,0.014495
2756.3663,0.014659
2758.2300,0.014783
2760.0937,0.014756
2761.9573,0.014670
2763.8210,0.014755
2765.6847,0.014979
2767.5483,0.015105
2769.4120,0.015219
2771.2757,0.015300
2773.1394,0.015325
2775.0030,0.015437
2776.8667,0.015556
2778.7304,0.015459
2780.5940,0.015563
2782.4577,0.015782
2784.3214,0.015860
2786.1850,0.015841
2788.0487,0.016004
2789.9124,0.016281
2791.7760,0.016437
2793.6397,0.016511
2795.5034,0.016540
2797.3670,0.016660
2799.2307,0.016891
2801.0944,0.017008
2802.9581,0.017120
2804.8217,0.017075
2806.6854,0.017025
2808.5491,0.017196
2810.4127,0.017517
2812.2764,0.017840
2814.1401,0.017755
2816.0037,0.017595
2817.8674,0.017858
2819.7311,0.018211
2821.5947,0.018387
2823.4584,0.018633
2825.3221,0.018691
2827.1857,0.018802
2829.0494,0.019180
2830.9131,0.019233
2832.7768,0.019236
2834.6404,0.019646
2836.5041,0.019965
2838.3678,0.020166
2840.2314,0.020625
2842.0951,0.021175
2843.9588,0.021742
2845.8224,0.022046
2847.6861,0.022456
2849.5498,0.023127
2851.4134,0.023535
2853.2771,0.023526
2855.1408,0.023291
2857.0045,0.023059
2858.8681,0.022976
2860.7318,0.023028
2862.5955,0.023251
2864.4591,0.023625
2866.3228,0.023811
2868.1865,0.024078
2870.0501,0.024452
2871.9138,0.024578
2873.7775,0.024552
2875.6411,0.024372
2877.5048,0.024429
2879.3685,0.024652
2881.2321,0.024505
2883.0958,0.024115
2884.9595,0.023930
2886.8232,0.024277
2888.6868,0.024434
2890.5505,0.024291
2892.4142,0.024344
2894.2778,0.024774
2896.1415,0.025295
2898.0052,0.025547
2899.8688,0.025700
2901.7325,0.026059
2903.5962,0.026576
2905.4598,0.026966
2907.3235,0.027147
2909.1872,0.027397
2911.0509,0.027992
2912.9145,0.028554
2914.7782,0.029046
2916.6419,0.029426
2918.5055,0.029870
2920.3692,0.029921
2922.2329,0.029734
2924.0965,0.029837
2925.9602,0.030153
2927.8239,0.030008
2929.6875,0.029789
2931.5512,0.029920
2933.4149,0.029719
2935.2785,0.029051
2937.1422,0.028513
2939.0059,0.028039
2940.8696,0.027594
2942.7332,0.027400
2944.5969,0.027351
2946.4606,0.027325
2948.3242,0.027345
2950.1879,0.027199
2952.0516,0.027217
2953.9152,0.027574
2955.7789,0.027508
2957.6426,0.027112
2959.5062,0.027225
2961.3699,0.027048
2963.2336,0.026328
2965.0972,0.025874
2966.9609,0.026007
2968.8246,0.025841
2970.6883,0.025319
2972.5519,0.024767
2974.4156,0.024563
2976.2793,0.024152
2978.1429,0.023633
2980.0066,0.023325
2981.8703,0.023207
2983.7339,0.023128
2985.5976,0.022747
2987.4613,0.022198
2989.3249,0.022035
2991.1886,0.022066
2993.0523,0.021951
2994.9160,0.021883
2996.7796,0.021910
2998.6433,0.021760
3000.5070,0.021987
3002.3706,0.022348
3004.2343,0.022077
3006.0980,0.022034
3007.9616,0.022358
3009.8253,0.022405
3011.6890,0.022731
3013.5526,0.023058
3015.4163,0.023087
3017.2800,0.022996
3019.1436,0.023099
3021.0073,0.023321
3022.8710,0.023387
3024.7347,0.023628
3026.5983,0.023787
3028.4620,0.023806
3030.3257,0.024090
3032.1893,0.024547
3034.0530,0.024837
3035.9167,0.024744
3037.7803,0.024708
3039.6440,0.024700
3041.5077,0.024747
3043.3713,0.025314
3045.2350,0.025810
3047.0987,0.025944
3048.9624,0.025956
3050.8260,0.025951
3052.6897,0.026034
3054.5534,0.026389
3056.4170,0.026589
3058.2807,0.026290
3060.1444,0.026474
3062.0080,0.026715
3063.8717,0.026825
3065.7354,0.026830
3067.5990,0.026784
3069.4627,0.026912
3071.3264,0.026887
3073.1900,0.026890
3075.0537,0.027046
3076.9174,0.026854
3078.7811,0.026807
3080.6447,0.026918
3082.5084,0.027199
3084.3721,0.027196
3086.2357,0.027109
3088.0994,0.027019
3089.9631,0.026876
3091.8267,0.027061
3093.6904,0.027078
3095.5541,0.026953
3097.4177,0.026778
3099.2814,0.026624
3101.1451,0.026589
3103.0087,0.026529
3104.8724,0.026779
3106.7361,0.027378
3108.5998,0.027732
3110.4634,0.027664
3112.3271,0.027412
3114.1908,0.027187
3116.0544,0.027444
3117.9181,0.027635
3119.7818,0.027659
3121.6454,0.027860
3123.5091,0.028009
3125.3728,0.027883
3127.2364,0.028114
3129.1001,0.028386
3130.9638,0.028444
3132.8275,0.028698
3134.6911,0.028997
3136.5548,0.028940
3138.4185,0.028988
3140.2821,0.029237
3142.1458,0.029277
3144.0095,0.029608
3145.8731,0.029885
3147.7368,0.029875
3149.6005,0.029789
3151.4641,0.030105
3153.3278,0.030651
3155.1915,0.031009
3157.0551,0.031394
3158.9188,0.031183
3160.7825,0.031469
3162.6462,0.032053
3164.5098,0.031974
3166.3735,0.032011
3168.2372,0.032357
3170.1008,0.032428
3171.9645,0.032876
3173.8282,0.033266
3175.6918,0.033424
3177.5555,0.033570
3179.4192,0.033785
3181.2828,0.034121
3183.1465,0.034128
3185.0102,0.034288
3186.8739,0.034438
3188.7375,0.034530
3190.6012,0.034951
3192.4649,0.035176
3194.3285,0.035144
3196.1922,0.035175
3198.0559,0.035492
3199.9195,0.036051
3201.7832,0.036034
3203.6469,0.035596
3205.5105,0.035408
3207.3742,0.035911
3209.2379,0.036544
3211.1015,0.036733
3212.9652,0.036564
3214.8289,0.036578
3216.6926,0.036629
3218.5562,0.036689
3220.4199,0.037000
3222.2836,0.037028
3224.1472,0.036937
3226.0109,0.036873
3227.8746,0.037070
3229.7382,0.037394
3231.6019,0.037498
3233.4656,0.037684
3235.3292,0.037824
3237.1929,0.037809
3239.0566,0.037921
3240.9202,0.038062
3242.7839,0.038237
3244.6476,0.038399
3246.5113,0.038850
3248.3749,0.039427
3250.2386,0.039367
3252.1023,0.039324
3253.9659,0.039590
3255.8296,0.039637
3257.6933,0.039744
3259.5569,0.039931
3261.4206,0.040301
3263.2843,0.040503
3265.1479,0.040807
3267.0116,0.040711
3268.8753,0.040550
3270.7390,0.040511
3272.6026,0.040544
3274.4663,0.040678
3276.3300,0.040609
3278.1936,0.040514
3280.0573,0.040460
3281.9210,0.040573
3283.7846,0.040504
3285.6483,0.040342
3287.5120,0.040391
3289.3756,0.040001
3291.2393,0.039494
3293.1030,0.039458
3294.9666,0.039079
3296.8303,0.038537
3298.6940,0.038510
3300.5577,0.038699
3302.4213,0.038625
3304.2850,0.037695
3306.1487,0.037213
3308.0123,0.037387
3309.8760,0.036938
3311.7397,0.036826
3313.6033,0.037282
3315.4670,0.037158
3317.3307,0.036578
3319.1943,0.035896
3321.0580,0.035507
3322.9217,0.035144
3324.7854,0.035159
3326.6490,0.034871
3328.5127,0.034519
3330.3764,0.034417
3332.2400,0.034343
3334.1037,0.034085
3335.9674,0.033919
3337.8310,0.033534
3339.6947,0.033273
3341.5584,0.033127
3343.4220,0.033390
3345.2857,0.033129
3347.1494,0.032824
3349.0130,0.032738
3350.8767,0.032385
3352.7404,0.032068
3354.6041,0.031822
3356.4677,0.031887
3358.3314,0.031948
3360.1951,0.031502
3362.0587,0.031744
3363.9224,0.031829
3365.7861,0.031419
3367.6497,0.031048
3369.5134,0.030910
3371.3771,0.030670
3373.2407,0.030544
3375.1044,0.030507
3376.9681,0.030081
3378.8317,0.029769
3380.6954,0.029717
3382.5591,0.029606
3384.4228,0.029758
3386.2864,0.029661
3388.1501,0.029195
3390.0138,0.028674
3391.8774,0.028735
3393.7411,0.028759
3395.6048,0.028708
3397.4684,0.028833
3399.3321,0.028982
3401.1958,0.028610
3403.0594,0.027887
3404.9231,0.027618
3406.7868,0.028026
3408.6505,0.027896
3410.5141,0.027324
3412.3778,0.027050
3414.2415,0.026789
3416.1051,0.026237
3417.9688,0.026513
3419.8325,0.026678
3421.6961,0.026238
3423.5598,0.026234
3425.4235,0.026337
3427.2871,0.025998
3429.1508,0.025929
3431.0145,0.025723
3432.8781,0.025178
3434.7418,0.024830
3436.6055,0.024970
3438.4692,0.024544
3440.3328,0.023913
3442.1965,0.024124
3444.0602,0.024027
3445.9238,0.023777
3447.7875,0.023622
3449.6512,0.023217
3451.5148,0.023622
3453.3785,0.023649
3455.2422,0.023237
3457.1058,0.022966
3458.9695,0.022987
3460.8332,0.022893
3462.6969,0.022475
3464.5605,0.021959
3466.4242,0.021714
3468.2879,0.021659
3470.1515,0.021787
3472.0152,0.021386
3473.8789,0.021321
3475.7425,0.021384
3477.6062,0.021461
3479.4699,0.020858
3481.3335,0.020035
3483.1972,0.019599
3485.0609,0.019810
3486.9245,0.020135
3488.7882,0.019961
3490.6519,0.019403
3492.5156,0.018939
3494.3792,0.018638
3496.2429,0.018418
3498.1066,0.018306
3499.9702,0.018140
3501.8339,0.018229
3503.6976,0.018383
3505.5612,0.017280
3507.4249,0.017324
3509.2886,0.017687
3511.1522,0.017160
3513.0159,0.016135
3514.8796,0.015607
3516.7432,0.015688
3518.6069,0.015784
3520.4706,0.015615
3522.3343,0.015222
3524.1979,0.014605
3526.0616,0.014648
3527.9253,0.015171
3529.7889,0.014920
3531.6526,0.014358
3533.5163,0.014207
3535.3799,0.013697
3537.2436,0.013431
3539.1073,0.013087
3540.9709,0.012613
3542.8346,0.012564
3544.6983,0.012499
3546.5620,0.012097
3548.4256,0.011950
3550.2893,0.012141
3552.1530,0.011992
3554.0166,0.011866
3555.8803,0.011316
3557.7440,0.010347
3559.6076,0.010311
3561.4713,0.010278
3563.3350,0.010152
3565.1986,0.010441
3567.0623,0.010010
3568.9260,0.009289
3570.7896,0.008698
3572.6533,0.008163
3574.5170,0.008165
3576.3807,0.008332
3578.2443,0.008060
3580.1080,0.007414
3581.9717,0.007447
3583.8353,0.007434
3585.6990,0.007356
3587.5627,0.006992
3589.4263,0.006483
3591.2900,0.006094
3593.1537,0.005803
3595.0173,0.006069
3596.8810,0.006504
3598.7447,0.006419
3600.6084,0.005796
3602.4720,0.005184
3604.3357,0.005281
3606.1994,0.004734
3608.0630,0.004399
3609.9267,0.004641
3611.7904,0.004529
3613.6540,0.004128
3615.5177,0.003650
3617.3814,0.003767
3619.2450,0.003964
3621.1087,0.002958
3622.9724,0.002547
3624.8360,0.003115
3626.6997,0.003345
3628.5634,0.003287
3630.4271,0.002426
3632.2907,0.001865
3634.1544,0.002054
3636.0181,0.001946
3637.8817,0.001622
3639.7454,0.001478
3641.6091,0.001538
3643.4727,0.001495
3645.3364,0.001587
3647.2001,0.001254
3649.0637,0.000505
3650.9274,-0.000634
3652.7911,-0.000780
3654.6547,-0.000042
3656.5184,0.000538
3658.3821,0.000361
3660.2458,0.000026
3662.1094,-0.000039
3663.9731,-0.000218
3665.8368,0.000092
3667.7004,0.000150
3669.5641,-0.000858
3671.4278,-0.001599
3673.2914,-0.000791
3675.1551,-0.000282
3677.0188,-0.000764
3678.8824,-0.001300
3680.7461,-0.001225
3682.6098,-0.000832
3684.4735,-0.001132
3686.3371,-0.001418
3688.2008,-0.001296
3690.0645,-0.001429
3691.9281,-0.002006
3693.7918,-0.001932
3695.6555,-0.001630
3697.5191,-0.001367
3699.3828,-0.000962
3701.2465,-0.000865
3703.1101,-0.001142
3704.9738,-0.001389
3706.8375,-0.001234
3708.7011,-0.000911
3710.5648,-0.000858
3712.4285,-0.001663
3714.2922,-0.002167
3716.1558,-0.001830
3718.0195,-0.001628
3719.8832,-0.001329
3721.7468,-0.001428
3723.6105,-0.002093
3725.4742,-0.002147
3727.3378,-0.001285
3729.2015,-0.000710
3731.0652,-0.000811
3732.9288,-0.001076
3734.7925,-0.001530
3736.6562,-0.002125
3738.5199,-0.002011
3740.3835,-0.001650
3742.2472,-0.001398
3744.1109,-0.001357
3745.9745,-0.002224
3747.8382,-0.002347
3749.7019,-0.001696
3751.5655,-0.001060
3753.4292,-0.001357
3755.2929,-0.001194
3757.1565,-0.001031
3759.0202,-0.001317
3760.8839,-0.001589
3762.7475,-0.001564
3764.6112,-0.001312
3766.4749,-0.001338
3768.3386,-0.001314
3770.2022,-0.001062
3772.0659,-0.001421
3773.9296,-0.001755
3775.7932,-0.001275
3777.6569,-0.000839
3779.5206,-0.000905
3781.3842,-0.001293
3783.2479,-0.001474
3785.1116,-0.001784
3786.9752,-0.002009
3788.8389,-0.001531
3790.7026,-0.001100
3792.5662,-0.001038
3794.4299,-0.001036
3796.2936,-0.000788
3798.1573,-0.000816
3800.0209,-0.001423
3801.8846,-0.001689
3803.7483,-0.001766
3805.6119,-0.001629
3807.4756,-0.001335
3809.3393,-0.001523
3811.2029,-0.001346
3813.0666,-0.000860
3814.9303,-0.000793
3816.7939,-0.001170
3818.6576,-0.001418
3820.5213,-0.001215
3822.3850,-0.001443
3824.2486,-0.001916
3826.1123,-0.001580
3827.9760,-0.001056
3829.8396,-0.000860
3831.7033,-0.000891
3833.5670,-0.001338
3835.4306,-0.001552
3837.2943,-0.000821
3839.1580,-0.000473
3841.0216,-0.001179
3842.8853,-0.001442
3844.7490,-0.001525
3846.6126,-0.001494
3848.4763,-0.001042
3850.3400,-0.000602
3852.2037,-0.000650
3854.0673,-0.001967
3855.9310,-0.002563
3857.7947,-0.001510
3859.6583,-0.001154
3861.5220,-0.001170
3863.3857,-0.001103
3865.2493,-0.001092
3867.1130,-0.001261
3868.9767,-0.001336
3870.8403,-0.001592
3872.7040,-0.001634
3874.5677,-0.001224
3876.4314,-0.001052
3878.2950,-0.001345
3880.1587,-0.000995
3882.0224,-0.000792
3883.8860,-0.000667
3885.7497,-0.000467
3887.6134,-0.000918
3889.4770,-0.001237
3891.3407,-0.001089
3893.2044,-0.001524
3895.0680,-0.001726
3896.9317,-0.000465
3898.7954,-0.000012
3900.6590,-0.000658
3902.5227,-0.001174
3904.3864,-0.001258
3906.2501,-0.001228
3908.1137,-0.001105
3909.9774,-0.000995
3911.8411,-0.001176
3913.7047,-0.001102
3915.5684,-0.000763
3917.4321,-0.000676
3919.2957,-0.000920
3921.1594,-0.000835
3923.0231,-0.000756
3924.8867,-0.000939
3926.7504,-0.000985
3928.6141,-0.001149
3930.4777,-0.001264
3932.3414,-0.001393
3934.2051,-0.001456
3936.0688,-0.001164
3937.9324,-0.000992
3939.7961,-0.000904
3941.6598,-0.000816
3943.5234,-0.000393
3945.3871,-0.000231
3947.2508,-0.000385
3949.1144,-0.000433
3950.9781,-0.000751
3952.8418,-0.001008
3954.7054,-0.000845
3956.5691,-0.000842
3958.4328,-0.000908
3960.2965,-0.001164
3962.1601,-0.001172
3964.0238,-0.001028
3965.8875,-0.000794
3967.7511,-0.000937
3969.6148,-0.000843
3971.4785,-0.000344
3973.3421,-0.000592
3975.2058,-0.000863
3977.0695,-0.000724
3978.9331,-0.000613
3980.7968,-0.000613
3982.6605,-0.001104
3984.5241,-0.001436
3986.3878,-0.000924
3988.2515,-0.000618
3990.1152,-0.000727
3991.9788,-0.000811
3993.8425,-0.000900
3995.7062,-0.000544
3997.5698,-0.000385
3999.4335,-0.000519
