Wavenumber,Intensity
650.4205,0.085929
652.2841,0.081485
654.1478,0.081211
656.0115,0.082699
657.8751,0.079986
659.7388,0.077692
661.6025,0.079648
663.4661,0.078794
665.3298,0.075686
667.1935,0.077709
669.0571,0.083287
670.9208,0.079965
672.7845,0.078387
674.6481,0.077017
676.5118,0.075535
678.3755,0.074727
680.2392,0.074386
682.1028,0.075427
683.9665,0.075499
685.8302,0.073681
687.6938,0.071805
689.5575,0.070874
691.4212,0.071187
693.2848,0.071871
695.1485,0.072288
697.0122,0.072246
698.8758,0.072044
700.7395,0.071577
702.6032,0.070661
704.4669,0.069870
706.3305,0.069350
708.1942,0.067800
710.0579,0.066377
711.9215,0.066374
713.7852,0.065882
715.6489,0.065235
717.5125,0.065126
719.3762,0.064621
721.2399,0.063419
723.1035,0.062434
724.9672,0.061859
726.8309,0.060865
728.6945,0.059788
730.5582,0.058866
732.4219,0.058334
734.2856,0.057926
736.1492,0.057538
738.0129,0.057399
739.8766,0.057044
741.7402,0.056901
743.6039,0.057100
745.4676,0.056849
747.3312,0.055716
749.1949,0.054786
751.0586,0.054642
752.9222,0.054654
754.7859,0.054311
756.6496,0.053701
758.5132,0.053371
760.3769,0.053301
762.2406,0.053280
764.1043,0.053071
765.9679,0.052642
767.8316,0.052293
769.6953,0.052117
771.5589,0.052095
773.4226,0.052060
775.2863,0.051552
777.1499,0.050754
779.0136,0.050486
780.8773,0.050294
782.7409,0.049898
784.6046,0.049423
786.4683,0.048722
788.3320,0.047983
790.1956,0.047705
792.0593,0.047601
793.9230,0.047316
795.7866,0.046868
797.6503,0.046150
799.5140,0.045817
801.3776,0.046092
803.2413,0.046127
805.1050,0.046260
806.9686,0.046455
808.8323,0.045965
810.6960,0.045298
812.5596,0.045167
814.4233,0.044984
816.2870,0.044467
818.1507,0.043987
820.0143,0.043624
821.8780,0.043128
823.7417,0.042715
825.6053,0.042531
827.4690,0.042370
829.3327,0.042072
831.1963,0.041539
833.0600,0.041040
834.9237,0.040993
836.7873,0.040938
838.6510,0.040559
840.5147,0.040386
842.3784,0.040228
844.2420,0.039937
846.1057,0.039575
847.9694,0.039288
849.8330,0.039255
851.6967,0.039267
853.5604,0.039518
855.4240,0.039777
857.2877,0.039727
859.1514,0.039640
861.0150,0.039927
862.8787,0.040235
864.7424,0.040204
866.6060,0.040196
868.4697,0.040478
870.3334,0.040507
872.1971,0.040310
874.0607,0.040388
875.9244,0.040512
877.7881,0.040526
879.6517,0.040385
881.5154,0.040146
883.3791,0.040189
885.2427,0.040382
887.1064,0.040358
888.9701,0.040320
890.8337,0.040548
892.6974,0.040873
894.5611,0.041011
896.4247,0.040867
898.2884,0.040727
900.1521,0.040726
902.0158,0.040724
903.8794,0.040632
905.7431,0.040596
907.6068,0.040752
909.4704,0.040991
911.3341,0.041091
913.1978,0.041448
915.0614,0.042003
916.9251,0.042337
918.7888,0.042628
920.6524,0.042875
922.5161,0.043006
924.3798,0.043067
926.2435,0.043182
928.1071,0.043457
929.9708,0.043683
931.8345,0.043757
933.6981,0.043839
935.5618,0.044201
937.4255,0.044664
939.2891,0.045050
941.1528,0.045616
943.0165,0.046078
944.8801,0.046267
946.7438,0.046554
948.6075,0.046877
950.4711,0.047109
952.3348,0.047417
954.1985,0.047893
956.0622,0.048566
957.9258,0.049422
959.7895,0.050385
961.6532,0.051493
963.5168,0.052640
965.3805,0.053555
967.2442,0.054205
969.1078,0.054810
970.9715,0.055300
972.8352,0.055725
974.6988,0.056188
976.5625,0.056798
978.4262,0.057602
980.2899,0.058637
982.1535,0.059650
984.0172,0.060515
985.8809,0.061520
987.7445,0.062587
989.6082,0.063605
991.4719,0.064843
993.3355,0.066044
995.1992,0.066955
997.0629,0.067849
998.9265,0.068802
1000.7902,0.069635
1002.6539,0.070407
1004.5175,0.071240
1006.3812,0.072272
1008.2449,0.073387
1010.1086,0.074609
1011.9722,0.075822
1013.8359,0.076973
1015.6996,0.078080
1017.5632,0.079190
1019.4269,0.080173
1021.2906,0.080888
1023.1542,0.081423
1025.0179,0.081930
1026.8816,0.082441
1028.7452,0.082747
1030.6089,0.083017
1032.4726,0.083341
1034.3362,0.083480
1036.1999,0.083438
1038.0636,0.083236
1039.9273,0.082978
1041.7909,0.082678
1043.6546,0.082281
1045.5183,0.081851
1047.3819,0.081574
1049.2456,0.081429
1051.1093,0.081174
1052.9729,0.080830
1054.8366,0.080521
1056.7003,0.080237
1058.5639,0.079975
1060.4276,0.079720
1062.2913,0.079551
1064.1550,0.079507
1066.0186,0.079513
1067.8823,0.079397
1069.7460,0.079244
1071.6096,0.078924
1073.4733,0.078280
1075.3370,0.077366
1077.2006,0.075963
1079.0643,0.074390
1080.9280,0.072837
1082.7916,0.071103
1084.6553,0.069342
1086.5190,0.067706
1088.3826,0.066181
1090.2463,0.064810
1092.1100,0.063697
1093.9737,0.062680
1095.8373,0.061802
1097.7010,0.061075
1099.5647,0.060404
1101.4283,0.059861
1103.2920,0.059449
1105.1557,0.059079
1107.0193,0.058760
1108.8830,0.058494
1110.7467,0.058250
1112.6103,0.057974
1114.4740,0.057757
1116.3377,0.057558
1118.2014,0.057138
1120.0650,0.056519
1121.9287,0.056005
1123.7924,0.055504
1125.6560,0.054948
1127.5197,0.054417
1129.3834,0.053953
1131.2470,0.053629
1133.1107,0.053297
1134.9744,0.052890
1136.8380,0.052664
1138.7017,0.052527
1140.5654,0.052451
1142.4290,0.052509
1144.2927,0.052608
1146.1564,0.052747
1148.0201,0.052963
1149.8837,0.053171
1151.7474,0.053367
1153.6111,0.053449
1155.4747,0.053305
1157.3384,0.052973
1159.2021,0.052579
1161.0657,0.052108
1162.9294,0.051469
1164.7931,0.050717
1166.6567,0.049923
1168.5204,0.049026
1170.3841,0.048004
1172.2477,0.046777
1174.1114,0.045494
1175.9751,0.044264
1177.8388,0.043177
1179.7024,0.042375
1181.5661,0.041831
1183.4298,0.041503
1185.2934,0.041403
1187.1571,0.041518
1189.0208,0.041754
1190.8844,0.042175
1192.7481,0.042764
1194.6118,0.043367
1196.4754,0.043976
1198.3391,0.044817
1200.2028,0.045806
1202.0665,0.046593
1203.9301,0.047229
1205.7938,0.047881
1207.6575,0.048500
1209.5211,0.049040
1211.3848,0.049537
1213.2485,0.050025
1215.1121,0.050563
1216.9758,0.051099
1218.8395,0.051686
1220.7031,0.052346
1222.5668,0.052960
1224.4305,0.053433
1226.2941,0.053842
1228.1578,0.054131
1230.0215,0.054352
1231.8852,0.054527
1233.7488,0.054630
1235.6125,0.054587
1237.4762,0.054358
1239.3398,0.054044
1241.2035,0.053743
1243.0672,0.053307
1244.9308,0.052762
1246.7945,0.052188
1248.6582,0.051607
1250.5218,0.051119
1252.3855,0.050683
1254.2492,0.050200
1256.1129,0.049733
1257.9765,0.049277
1259.8402,0.048835
1261.7039,0.048507
1263.5675,0.048260
1265.4312,0.047984
1267.2949,0.047667
1269.1585,0.047421
1271.0222,0.047292
1272.8859,0.047175
1274.7495,0.047017
1276.6132,0.046905
1278.4769,0.046808
1280.3405,0.046665
1282.2042,0.046549
1284.0679,0.046539
1285.9316,0.046565
1287.7952,0.046547
1289.6589,0.046589
1291.5226,0.046636
1293.3862,0.046608
1295.2499,0.046799
1297.1136,0.047224
1298.9772,0.047453
1300.8409,0.047527
1302.7046,0.047659
1304.5682,0.047847
1306.4319,0.048078
1308.2956,0.048311
1310.1592,0.048367
1312.0229,0.048429
1313.8866,0.048505
1315.7503,0.048290
1317.6139,0.048031
1319.4776,0.047858
1321.3413,0.047549
1323.2049,0.047172
1325.0686,0.046874
1326.9323,0.046652
1328.7959,0.046514
1330.6596,0.046422
1332.5233,0.046297
1334.3869,0.046211
1336.2506,0.046287
1338.1143,0.046732
1339.9780,0.047365
1341.8416,0.047398
1343.7053,0.047085
1345.5690,0.047052
1347.4326,0.047045
1349.2963,0.047069
1351.1600,0.047096
1353.0236,0.047211
1354.8873,0.047517
1356.7510,0.047714
1358.6146,0.047758
1360.4783,0.048426
1362.3420,0.050151
1364.2056,0.051415
1366.0693,0.051785
1367.9330,0.052603
1369.7967,0.053216
1371.6603,0.053576
1373.5240,0.054755
1375.3877,0.055801
1377.2513,0.055708
1379.1150,0.055562
1380.9787,0.055297
1382.8423,0.054865
1384.7060,0.054542
1386.5697,0.055063
1388.4333,0.055373
1390.2970,0.054491
1392.1607,0.053689
1394.0244,0.054070
1395.8880,0.054647
1397.7517,0.054488
1399.6154,0.054470
1401.4790,0.053470
1403.3427,0.052711
1405.2064,0.052802
1407.0700,0.052270
1408.9337,0.051673
1410.7974,0.051389
1412.6610,0.050749
1414.5247,0.049860
1416.3884,0.049562
1418.2520,0.050930
1420.1157,0.051787
1421.9794,0.050546
1423.8431,0.050375
1425.7067,0.050529
1427.5704,0.050430
1429.4341,0.051264
1431.2977,0.051817
1433.1614,0.051318
1435.0251,0.051956
1436.8887,0.054718
1438.7524,0.054978
1440.6161,0.053870
1442.4797,0.053641
1444.3434,0.053391
1446.2071,0.053446
1448.0707,0.053894
1449.9344,0.053496
1451.7981,0.052354
1453.6618,0.051118
1455.5254,0.051383
1457.3891,0.054111
1459.2528,0.053034
1461.1164,0.050435
1462.9801,0.049114
1464.8438,0.049536
1466.7074,0.048505
1468.5711,0.045868
1470.4348,0.043911
1472.2984,0.044280
1474.1621,0.044665
1476.0258,0.044018
1477.8895,0.043465
1479.7531,0.043328
1481.6168,0.043871
1483.4805,0.044065
1485.3441,0.044356
1487.2078,0.046287
1489.0715,0.049716
1490.9351,0.052202
1492.7988,0.051960
1494.6625,0.052466
1496.5261,0.056200
1498.3898,0.059188
1500.2535,0.059702
1502.1171,0.059051
1503.9808,0.058971
1505.8445,0.063673
1507.7082,0.070767
1509.5718,0.070259
1511.4355,0.069512
1513.2992,0.069427
1515.1628,0.069762
1517.0265,0.070812
1518.8902,0.070890
1520.7538,0.071682
1522.6175,0.073303
1524.4812,0.072900
1526.3448,0.073096
1528.2085,0.072962
1530.0722,0.072121
1531.9359,0.071968
1533.7995,0.072672
1535.6632,0.071354
1537.5269,0.069571
1539.3905,0.070907
1541.2542,0.073112
1543.1179,0.071859
1544.9815,0.070137
1546.8452,0.068023
1548.7089,0.066172
1550.5725,0.064746
1552.4362,0.062699
1554.2999,0.060293
1556.1635,0.058673
1558.0272,0.059577
1559.8909,0.061092
1561.7546,0.057433
1563.6182,0.054461
1565.4819,0.052783
1567.3456,0.051600
1569.2092,0.051201
1571.0729,0.050448
1572.9366,0.048494
1574.8002,0.047907
1576.6639,0.049267
1578.5276,0.048475
1580.3912,0.047112
1582.2549,0.046749
1584.1186,0.046665
1585.9822,0.046817
1587.8459,0.047282
1589.7096,0.047825
1591.5733,0.048430
1593.4369,0.049380
1595.3006,0.050643
1597.1643,0.051691
1599.0279,0.052849
1600.8916,0.054347
1602.7553,0.055903
1604.6189,0.057447
1606.4826,0.059121
1608.3463,0.061246
1610.2099,0.063112
1612.0736,0.064402
1613.9373,0.065736
1615.8010,0.068940
1617.6646,0.072964
1619.5283,0.073337
1621.3920,0.073498
1623.2556,0.075958
1625.1193,0.077913
1626.9830,0.078612
1628.8466,0.079517
1630.7103,0.079358
1632.5740,0.078737
1634.4376,0.079191
1636.3013,0.080810
1638.1650,0.079798
1640.0286,0.077491
1641.8923,0.075700
1643.7560,0.073907
1645.6197,0.072745
1647.4833,0.072189
1649.3470,0.070206
1651.2107,0.067751
1653.0743,0.067822
1654.9380,0.067145
1656.8017,0.063956
1658.6653,0.061042
1660.5290,0.058831
1662.3927,0.056983
1664.2563,0.055015
1666.1200,0.052467
1667.9837,0.050399
1669.8474,0.049028
1671.7110,0.047325
1673.5747,0.045121
1675.4384,0.043481
1677.3020,0.041482
1679.1657,0.038759
1681.0294,0.036549
1682.8930,0.035062
1684.7567,0.034518
1686.6204,0.032656
1688.4840,0.029730
1690.3477,0.027564
1692.2114,0.025298
1694.0750,0.022830
1695.9387,0.020917
1697.8024,0.019302
1699.6661,0.017316
1701.5297,0.016471
1703.3934,0.014567
1705.2571,0.013018
1707.1207,0.012435
1708.9844,0.011546
1710.8481,0.010422
1712.7117,0.009525
1714.5754,0.008811
1716.4391,0.008832
1718.3027,0.009549
1720.1664,0.009553
1722.0301,0.008837
1723.8937,0.008768
1725.7574,0.008717
1727.6211,0.008572
1729.4848,0.008807
1731.3484,0.009365
1733.2121,0.010631
1735.0758,0.013094
1736.9394,0.013407
1738.8031,0.013530
1740.6668,0.014976
1742.5304,0.015440
1744.3941,0.014865
1746.2578,0.013876
1748.1214,0.012710
1749.9851,0.011548
1751.8488,0.009997
1753.7125,0.008235
1755.5761,0.006272
1757.4398,0.004823
1759.3035,0.003528
1761.1671,0.002529
1763.0308,0.002309
1764.8945,0.001807
1766.7581,0.001010
1768.6218,0.000623
1770.4855,0.000150
1772.3491,0.000122
1774.2128,0.000759
1776.0765,0.000566
1777.9401,0.000241
1779.8038,0.000119
1781.6675,0.000245
1783.5312,0.000243
1785.3948,0.000132
1787.2585,0.000020
1789.1222,-0.000239
1790.9858,-0.000370
1792.8495,0.000094
1794.7132,0.000285
1796.5768,-0.000166
1798.4405,-0.000560
1800.3042,-0.000519
1802.1678,-0.000169
1804.0315,-0.000199
1805.8952,-0.000277
1807.7589,-0.000406
1809.6225,-0.000526
1811.4862,-0.000493
1813.3499,-0.000523
1815.2135,-0.000744
1817.0772,-0.000756
1818.9409,-0.000572
1820.8045,-0.000512
1822.6682,-0.000510
1824.5319,-0.000430
1826.3955,-0.000189
1828.2592,-0.000044
1830.1229,0.000343
1831.9865,0.000447
1833.8502,-0.000273
1835.7139,-0.000501
1837.5776,-0.000218
1839.4412,-0.000310
1841.3049,-0.000579
1843.1686,-0.000427
1845.0322,0.000237
1846.8959,0.000317
1848.7596,-0.000004
1850.6232,0.000042
1852.4869,0.000156
1854.3506,0.000000
1856.2142,-0.000452
1858.0779,-0.000430
1859.9416,-0.000234
1861.8052,0.000021
1863.6689,0.000198
1865.5326,-0.000131
1867.3963,-0.000572
1869.2599,-0.000117
1871.1236,0.000373
1872.9873,0.000175
1874.8509,-0.000029
1876.7146,-0.000047
1878.5783,0.000055
1880.4419,-0.000064
1882.3056,-0.000053
1884.1693,0.000138
1886.0329,0.000093
1887.8966,0.000183
1889.7603,0.000465
1891.6240,0.000777
1893.4876,0.000852
1895.3513,0.000897
1897.2150,0.000811
1899.0786,0.000469
1900.9423,0.000110
1902.8060,0.000002
1904.6696,-0.000064
1906.5333,-0.000048
1908.3970,-0.000203
1910.2606,-0.000145
1912.1243,0.000310
1913.9880,0.000234
1915.8516,-0.000142
1917.7153,0.000268
1919.5790,0.000835
1921.4427,0.001001
1923.3063,0.001039
1925.1700,0.000536
1927.0337,0.000119
1928.8973,0.000386
1930.7610,0.000616
1932.6247,0.000493
1934.4883,-0.000099
1936.3520,0.000315
1938.2157,0.001039
1940.0793,0.000647
1941.9430,0.000178
1943.8067,0.000663
1945.6704,0.000724
1947.5340,0.000385
1949.3977,0.000280
1951.2614,0.000561
1953.1250,0.001075
1954.9887,0.001221
1956.8524,0.000668
1958.7160,0.000623
1960.5797,0.000537
1962.4434,0.000923
1964.3070,0.001475
1966.1707,0.001835
1968.0344,0.002060
1969.8980,0.001651
1971.7617,0.001269
1973.6254,0.002408
1975.4891,0.004019
1977.3527,0.004522
1979.2164,0.004317
1981.0801,0.003464
1982.9437,0.002605
1984.8074,0.002655
1986.6711,0.003015
1988.5347,0.002785
1990.3984,0.002282
1992.2621,0.002684
1994.1257,0.003531
1995.9894,0.003163
1997.8531,0.002494
1999.7167,0.002488
2001.5804,0.003354
2003.4441,0.003239
2005.3078,0.002295
2007.1714,0.002300
2009.0351,0.002240
2010.8988,0.002187
2012.7624,0.002298
2014.6261,0.002580
2016.4898,0.002898
2018.3534,0.002669
2020.2171,0.002127
2022.0808,0.002279
2023.9444,0.003019
2025.8081,0.003286
2027.6718,0.004493
2029.5355,0.004557
2031.3991,0.003315
2033.2628,0.003298
2035.1265,0.003857
2036.9901,0.004202
2038.8538,0.004544
2040.7175,0.005284
2042.5811,0.005687
2044.4448,0.005250
2046.3085,0.005143
2048.1721,0.005249
2050.0358,0.004770
2051.8995,0.004245
2053.7631,0.004302
2055.6268,0.003506
2057.4905,0.002951
2059.3542,0.003337
2061.2178,0.003545
2063.0815,0.004061
2064.9452,0.004183
2066.8088,0.003880
2068.6725,0.003305
2070.5362,0.002937
2072.3998,0.003614
2074.2635,0.004068
2076.1272,0.003646
2077.9908,0.003231
2079.8545,0.003330
2081.7182,0.003523
2083.5819,0.003984
2085.4455,0.003954
2087.3092,0.003361
2089.1729,0.002751
2091.0365,0.002349
2092.9002,0.002930
2094.7639,0.003682
2096.6275,0.003571
2098.4912,0.003421
2100.3549,0.003381
2102.2185,0.003278
2104.0822,0.003321
2105.9459,0.002880
2107.8095,0.002629
2109.6732,0.003000
2111.5369,0.003251
2113.4006,0.003318
2115.2642,0.003181
2117.1279,0.002800
2118.9916,0.002374
2120.8552,0.002349
2122.7189,0.002302
2124.5826,0.002614
2126.4462,0.002671
2128.3099,0.001532
2130.1736,0.000712
2132.0372,0.000821
2133.9009,0.001598
2135.7646,0.002753
2137.6282,0.002918
2139.4919,0.002108
2141.3556,0.001737
2143.2193,0.002559
2145.0829,0.003224
2146.9466,0.002601
2148.8103,0.001992
2150.6739,0.002097
2152.5376,0.002666
2154.4013,0.003068
2156.2649,0.002684
2158.1286,0.004558
2159.9923,0.007542
2161.8559,0.007528
2163.7196,0.006630
2165.5833,0.006446
2167.4470,0.006043
2169.3106,0.005132
2171.1743,0.004558
2173.0380,0.005040
2174.9016,0.005618
2176.7653,0.005318
2178.6290,0.004767
2180.4926,0.005440
2182.3563,0.006518
2184.2200,0.005858
2186.0836,0.004251
2187.9473,0.004175
2189.8110,0.005085
2191.6746,0.005391
2193.5383,0.005276
2195.4020,0.005034
2197.2657,0.004728
2199.1293,0.004563
2200.9930,0.004307
2202.8567,0.004054
2204.7203,0.004257
2206.5840,0.004834
2208.4477,0.005116
2210.3113,0.005104
2212.1750,0.004861
2214.0387,0.004511
2215.9023,0.003826
2217.7660,0.003670
2219.6297,0.004809
2221.4934,0.005484
2223.3570,0.005084
2225.2207,0.004824
2227.0844,0.004482
2228.9480,0.004258
2230.8117,0.004053
2232.6754,0.004060
2234.5390,0.004151
2236.4027,0.004293
2238.2664,0.004316
2240.1300,0.004321
2241.9937,0.004574
2243.8574,0.004129
2245.7210,0.003087
2247.5847,0.002895
2249.4484,0.003542
2251.3121,0.003823
2253.1757,0.003633
2255.0394,0.003831
2256.9031,0.004039
2258.7667,0.003812
2260.6304,0.003334
2262.4941,0.003452
2264.3577,0.004232
2266.2214,0.004561
2268.0851,0.004249
2269.9487,0.004202
2271.8124,0.004412
2273.6761,0.004646
2275.5397,0.004768
2277.4034,0.004534
2279.2671,0.004546
2281.1308,0.004613
2282.9944,0.004436
2284.8581,0.004551
2286.7218,0.004373
2288.5854,0.004361
2290.4491,0.004286
2292.3128,0.003803
2294.1764,0.003802
2296.0401,0.004117
2297.9038,0.004138
2299.7674,0.003731
2301.6311,0.003276
2303.4948,0.003337
2305.3585,0.003568
2307.2221,0.003590
2309.0858,0.003147
2310.9495,0.003035
2312.8131,0.003440
2314.6768,0.003510
2316.5405,0.003389
2318.4041,0.003763
2320.2678,0.004313
2322.1315,0.004488
2323.9951,0.004289
2325.8588,0.003819
2327.7225,0.003338
2329.5861,0.003261
2331.4498,0.003251
2333.3135,0.003266
2335.1772,0.002829
2337.0408,0.002624
2338.9045,0.002880
2340.7682,0.003218
2342.6318,0.004287
2344.4955,0.005022
2346.3592,0.004362
2348.2228,0.003221
2350.0865,0.001946
2351.9502,0.001462
2353.8138,0.001880
2355.6775,0.002219
2357.5412,0.002649
2359.4049,0.003430
2361.2685,0.003908
2363.1322,0.003541
2364.9959,0.003838
2366.8595,0.005007
2368.7232,0.005615
2370.5869,0.005768
2372.4505,0.005319
2374.3142,0.004433
2376.1779,0.004207
2378.0415,0.004252
2379.9052,0.003709
2381.7689,0.003328
2383.6325,0.003218
2385.4962,0.003108
2387.3599,0.003075
2389.2236,0.003132
2391.0872,0.003295
2392.9509,0.003095
2394.8146,0.002875
2396.6782,0.003137
2398.5419,0.003425
2400.4056,0.003208
2402.2692,0.002950
2404.1329,0.003076
2405.9966,0.003458
2407.8602,0.003767
2409.7239,0.003875
2411.5876,0.004032
2413.4512,0.004054
2415.3149,0.003906
2417.1786,0.003695
2419.0423,0.003864
2420.9059,0.004188
2422.7696,0.004274
2424.6333,0.004094
2426.4969,0.003911
2428.3606,0.003903
2430.2243,0.004130
2432.0879,0.004501
2433.9516,0.004798
2435.8153,0.004794
2437.6789,0.004494
2439.5426,0.004494
2441.4063,0.004847
2443.2700,0.004977
2445.1336,0.004877
2446.9973,0.004731
2448.8610,0.004544
2450.7246,0.004549
2452.5883,0.004910
2454.4520,0.005410
2456.3156,0.005489
2458.1793,0.005132
2460.0430,0.005121
2461.9066,0.005245
2463.7703,0.005201
2465.6340,0.005030
2467.4976,0.005218
2469.3613,0.005490
2471.2250,0.005171
2473.0887,0.004981
2474.9523,0.005177
2476.8160,0.005273
2478.6797,0.005243
2480.5433,0.005234
2482.4070,0.005453
2484.2707,0.005522
2486.1343,0.005387
2487.9980,0.005300
2489.8617,0.005346
2491.7253,0.005671
2493.5890,0.005964
2495.4527,0.005836
2497.3164,0.005929
2499.1800,0.005755
2501.0437,0.005427
2502.9074,0.005546
2504.7710,0.005858
2506.6347,0.005964
2508.4984,0.006218
2510.3620,0.006371
2512.2257,0.006082
2514.0894,0.005764
2515.9530,0.006063
2517.8167,0.006369
2519.6804,0.006219
2521.5440,0.005971
2523.4077,0.005941
2525.2714,0.005913
2527.1351,0.006134
2528.9987,0.006232
2530.8624,0.006435
2532.7261,0.006719
2534.5897,0.006782
2536.4534,0.006885
2538.3171,0.006794
2540.1807,0.006541
2542.0444,0.006483
2543.9081,0.006532
2545.7717,0.006700
2547.6354,0.006643
2549.4991,0.006837
2551.3627,0.007027
2553.2264,0.006570
2555.0901,0.006282
2556.9538,0.006699
2558.8174,0.006919
2560.6811,0.007267
2562.5448,0.007395
2564.4084,0.007267
2566.2721,0.007588
2568.1358,0.007672
2569.9994,0.007163
2571.8631,0.007173
2573.7268,0.007556
2575.5904,0.007997
2577.4541,0.008240
2579.3178,0.007931
2581.1815,0.007615
2583.0451,0.007715
2584.9088,0.007779
2586.7725,0.007824
2588.6361,0.008101
2590.4998,0.008297
2592.3635,0.008186
2594.2271,0.008478
2596.0908,0.008604
2597.9545,0.008316
2599.8181,0.008304
2601.6818,0.008634
2603.5455,0.008751
2605.4091,0.008694
2607.2728,0.008860
2609.1365,0.008967
2611.0002,0.008743
2612.8638,0.008769
2614.7275,0.008976
2616.5912,0.009090
2618.4548,0.009301
2620.3185,0.009482
2622.1822,0.009210
2624.0458,0.009055
2625.9095,0.009536
2627.7732,0.009889
2629.6368,0.009826
2631.5005,0.009759
2633.3642,0.009738
2635.2279,0.009640
2637.0915,0.009587
2638.9552,0.009800
2640.8189,0.009896
2642.6825,0.009883
2644.5462,0.009911
2646.4099,0.010032
2648.2735,0.010126
2650.1372,0.010111
2652.0009,0.010182
2653.8645,0.010273
2655.7282,0.010115
2657.5919,0.010058
2659.4555,0.010180
2661.3192,0.010139
2663.1829,0.009932
2665.0466,0.009908
2666.9102,0.010013
2668.7739,0.009990
2670.6376,0.009897
2672.5012,0.010004
2674.3649,0.010100
2676.2286,0.010182
2678.0922,0.010176
2679.9559,0.010247
2681.8196,0.010351
2683.6832,0.010380
2685.5469,0.010360
2687.4106,0.010398
2689.2742,0.010548
2691.1379,0.010656
2693.0016,0.010774
2694.8653,0.010935
2696.7289,0.011026
2698.5926,0.011013
2700.4563,0.011065
2702.3199,0.011075
2704.1836,0.011016
2706.0473,0.011255
2707.9109,0.011433
2709.7746,0.011406
2711.6383,0.011278
2713.5019,0.011482
2715.3656,0.011824
2717.2293,0.012018
2719.0930,0.012018
2720.9566,0.012115
2722.8203,0.012241
2724.6840,0.012196
2726.5476,0.012253
2728.4113,0.012387
2730.2750,0.012406
2732.1386,0.012400
2734.0023,0.012383
2735.8660,0.012573
2737.7296,0.012736
2739.5933,0.012859
2741.4570,0.013105
2743.3206,0.013113
2745.1843,0.013011
2747.0480,0.013162
2748.9117,0.013430
2750.7753,0.013493
2752.6390,0.013407
2754.5027,0.013536
2756.3663,0.013735
2758.2300,0.013765
2760.0937,0.013810
2761.9573,0.013921
2763.8210,0.013862
2765.6847,0.013925
2767.5483,0.014171
2769.4120,0.014486
2771.2757,0.014700
2773.1394,0.014779
2775.0030,0.014885
2776.8667,0.014958
2778.7304,0.015081
2780.5940,0.015250
2782.4577,0.015238
2784.3214,0.015399
2786.1850,0.015678
2788.0487,0.015818
2789.9124,0.015705
2791.7760,0.015902
2793.6397,0.016162
2795.5034,0.016342
2797.3670,0.016567
2799.2307,0.016807
2801.0944,0.017012
2802.9581,0.017126
2804.8217,0.017312
2806.6854,0.017286
2808.5491,0.017295
2810.4127,0.017521
2812.2764,0.017720
2814.1401,0.017821
2816.0037,0.017957
2817.8674,0.018388
2819.7311,0.018557
2821.5947,0.018728
2823.4584,0.019149
2825.3221,0.019462
2827.1857,0.019787
2829.0494,0.020182
2830.9131,0.020539
2832.7768,0.021111
2834.6404,0.021432
2836.5041,0.021664
2838.3678,0.022382
2840.2314,0.023527
2842.0951,0.024460
2843.9588,0.025508
2845.8224,0.026681
2847.6861,0.028054
2849.5498,0.029354
2851.4134,0.029897
2853.2771,0.029922
2855.1408,0.029743
2857.0045,0.029051
2858.8681,0.028119
2860.7318,0.027226
2862.5955,0.026890
2864.4591,0.026775
2866.3228,0.026645
2868.1865,0.026808
2870.0501,0.027196
2871.9138,0.027285
2873.7775,0.026973
2875.6411,0.026636
2877.5048,0.026641
2879.3685,0.026751
2881.2321,0.026978
2883.0958,0.027059
2884.9595,0.026963
2886.8232,0.027179
2888.6868,0.027615
2890.5505,0.027895
2892.4142,0.028130
2894.2778,0.028544
2896.1415,0.028973
2898.0052,0.029374
2899.8688,0.030026
2901.7325,0.030618
2903.5962,0.031253
2905.4598,0.031989
2907.3235,0.032723
2909.1872,0.033449
2911.0509,0.034029
2912.9145,0.034478
2914.7782,0.035499
2916.6419,0.036530
2918.5055,0.037363
2920.3692,0.038053
2922.2329,0.038229
2924.0965,0.038063
2925.9602,0.037801
2927.8239,0.037106
2929.6875,0.036259
2931.5512,0.035450
2933.4149,0.034583
2935.2785,0.033423
2937.1422,0.032485
2939.0059,0.031784
2940.8696,0.031036
2942.7332,0.030428
2944.5969,0.029869
2946.4606,0.029104
2948.3242,0.028870
2950.1879,0.029152
2952.0516,0.029426
2953.9152,0.029272
2955.7789,0.029079
2957.6426,0.028755
2959.5062,0.028571
2961.3699,0.028546
2963.2336,0.027878
2965.0972,0.026865
2966.9609,0.026337
2968.8246,0.026009
2970.6883,0.025499
2972.5519,0.025047
2974.4156,0.024528
2976.2793,0.023935
2978.1429,0.023611
2980.0066,0.023026
2981.8703,0.022530
2983.7339,0.022239
2985.5976,0.021827
2987.4613,0.021440
2989.3249,0.021395
2991.1886,0.021333
2993.0523,0.021471
2994.9160,0.021489
2996.7796,0.021541
2998.6433,0.021543
3000.5070,0.021609
3002.3706,0.021765
3004.2343,0.022133
3006.0980,0.022485
3007.9616,0.022379
3009.8253,0.022052
3011.6890,0.022219
3013.5526,0.022344
3015.4163,0.022184
3017.2800,0.022188
3019.1436,0.022338
3021.0073,0.022094
3022.8710,0.021910
3024.7347,0.022066
3026.5983,0.022450
3028.4620,0.022893
3030.3257,0.022991
3032.1893,0.023220
3034.0530,0.023383
3035.9167,0.023346
3037.7803,0.023471
3039.6440,0.023729
3041.5077,0.023949
3043.3713,0.024084
3045.2350,0.024272
3047.0987,0.024393
3048.9624,0.024590
3050.8260,0.024703
3052.6897,0.024578
3054.5534,0.024816
3056.4170,0.025070
3058.2807,0.025215
3060.1444,0.025517
3062.0080,0.025661
3063.8717,0.025699
3065.7354,0.025705
3067.5990,0.025819
3069.4627,0.025941
3071.3264,0.025774
3073.1900,0.025866
3075.0537,0.025990
3076.9174,0.025898
3078.7811,0.025851
3080.6447,0.025845
3082.5084,0.026011
3084.3721,0.025772
3086.2357,0.025368
3088.0994,0.025694
3089.9631,0.026105
3091.8267,0.025985
3093.6904,0.025640
3095.5541,0.025441
3097.4177,0.025562
3099.2814,0.025738
3101.1451,0.025818
3103.0087,0.025729
3104.8724,0.025732
3106.7361,0.025921
3108.5998,0.026065
3110.4634,0.025706
3112.3271,0.025652
3114.1908,0.025772
3116.0544,0.025819
3117.9181,0.025877
3119.7818,0.026104
3121.6454,0.026046
3123.5091,0.025998
3125.3728,0.026459
3127.2364,0.026829
3129.1001,0.026935
3130.9638,0.026847
3132.8275,0.027166
3134.6911,0.027703
3136.5548,0.027632
3138.4185,0.027554
3140.2821,0.027701
3142.1458,0.027872
3144.0095,0.028094
3145.8731,0.028456
3147.7368,0.028696
3149.6005,0.028703
3151.4641,0.028653
3153.3278,0.028912
3155.1915,0.029142
3157.0551,0.029491
3158.9188,0.030158
3160.7825,0.030452
3162.6462,0.030298
3164.5098,0.030726
3166.3735,0.031168
3168.2372,0.031310
3170.1008,0.031310
3171.9645,0.031535
3173.8282,0.032197
3175.6918,0.032620
3177.5555,0.032525
3179.4192,0.032385
3181.2828,0.032424
3183.1465,0.032715
3185.0102,0.032940
3186.8739,0.032922
3188.7375,0.033110
3190.6012,0.033354
3192.4649,0.033562
3194.3285,0.034114
3196.1922,0.034147
3198.0559,0.034160
3199.9195,0.034326
3201.7832,0.034516
3203.6469,0.034612
3205.5105,0.034614
3207.3742,0.034772
3209.2379,0.034865
3211.1015,0.034942
3212.9652,0.035315
3214.8289,0.035659
3216.6926,0.035864
3218.5562,0.035797
3220.4199,0.035732
3222.2836,0.035747
3224.1472,0.035923
3226.0109,0.035965
3227.8746,0.036091
3229.7382,0.036517
3231.6019,0.036630
3233.4656,0.036645
3235.3292,0.036916
3237.1929,0.036723
3239.0566,0.036927
3240.9202,0.037225
3242.7839,0.037377
3244.6476,0.037580
3246.5113,0.037849
3248.3749,0.037750
3250.2386,0.037635
3252.1023,0.038029
3253.9659,0.038314
3255.8296,0.038669
3257.6933,0.039307
3259.5569,0.039329
3261.4206,0.039148
3263.2843,0.039278
3265.1479,0.039383
3267.0116,0.039218
3268.8753,0.039455
3270.7390,0.039540
3272.6026,0.039462
3274.4663,0.039685
3276.3300,0.039835
3278.1936,0.039798
3280.0573,0.039544
3281.9210,0.039154
3283.7846,0.038878
3285.6483,0.038880
3287.5120,0.039139
3289.3756,0.038673
3291.2393,0.038155
3293.1030,0.037886
3294.9666,0.037792
3296.8303,0.037817
3298.6940,0.037438
3300.5577,0.037089
3302.4213,0.037018
3304.2850,0.036778
3306.1487,0.036533
3308.0123,0.036503
3309.8760,0.036515
3311.7397,0.036010
3313.6033,0.035380
3315.4670,0.035153
3317.3307,0.035109
3319.1943,0.034561
3321.0580,0.033959
3322.9217,0.033993
3324.7854,0.034269
3326.6490,0.033693
3328.5127,0.033054
3330.3764,0.033363
3332.2400,0.033397
3334.1037,0.033012
3335.9674,0.032613
3337.8310,0.032624
3339.6947,0.032795
3341.5584,0.032536
3343.4220,0.031923
3345.2857,0.031397
3347.1494,0.031324
3349.0130,0.031489
3350.8767,0.031286
3352.7404,0.030659
3354.6041,0.030342
3356.4677,0.030454
3358.3314,0.030379
3360.1951,0.030122
3362.0587,0.029912
3363.9224,0.030023
3365.7861,0.029916
3367.6497,0.029703
3369.5134,0.029732
3371.3771,0.029592
3373.2407,0.028938
3375.1044,0.028311
3376.9681,0.028234
3378.8317,0.027948
3380.6954,0.027867
3382.5591,0.028267
3384.4228,0.027965
3386.2864,0.027438
3388.1501,0.027281
3390.0138,0.027116
3391.8774,0.027154
3393.7411,0.027160
3395.6048,0.026751
3397.4684,0.026671
3399.3321,0.026342
3401.1958,0.025768
3403.0594,0.025587
3404.9231,0.025843
3406.7868,0.026061
3408.6505,0.025787
3410.5141,0.025272
3412.3778,0.024903
3414.2415,0.024455
3416.1051,0.024598
3417.9688,0.024657
3419.8325,0.024295
3421.6961,0.024372
3423.5598,0.024681
3425.4235,0.024306
3427.2871,0.023756
3429.1508,0.023402
3431.0145,0.022912
3432.8781,0.022700
3434.7418,0.022808
3436.6055,0.022386
3438.4692,0.022036
3440.3328,0.021856
3442.1965,0.021733
3444.0602,0.021846
3445.9238,0.021271
3447.7875,0.020825
3449.6512,0.021284
3451.5148,0.021433
3453.3785,0.021228
3455.2422,0.021068
3457.1058,0.020792
3458.9695,0.020133
3460.8332,0.019865
3462.6969,0.019340
3464.5605,0.018711
3466.4242,0.018476
3468.2879,0.018555
3470.1515,0.018429
3472.0152,0.018109
3473.8789,0.017916
3475.7425,0.017619
3477.6062,0.017275
3479.4699,0.017101
3481.3335,0.016979
3483.1972,0.016962
3485.0609,0.016327
3486.9245,0.015980
3488.7882,0.015851
3490.6519,0.015810
3492.5156,0.015417
3494.3792,0.015003
3496.2429,0.014886
3498.1066,0.015125
3499.9702,0.015145
3501.8339,0.014457
3503.6976,0.013926
3505.5612,0.013881
3507.4249,0.013842
3509.2886,0.013930
3511.1522,0.014125
3513.0159,0.013312
3514.8796,0.012140
3516.7432,0.012186
3518.6069,0.012306
3520.4706,0.011927
3522.3343,0.011470
3524.1979,0.011395
3526.0616,0.011253
3527.9253,0.011159
3529.7889,0.010865
3531.6526,0.010400
3533.5163,0.009942
3535.3799,0.009541
3537.2436,0.009495
3539.1073,0.009674
3540.9709,0.009035
3542.8346,0.008315
3544.6983,0.007822
3546.5620,0.008008
3548.4256,0.008015
3550.2893,0.007428
3552.1530,0.007447
3554.0166,0.008053
3555.8803,0.007473
3557.7440,0.006671
3559.6076,0.006151
3561.4713,0.005858
3563.3350,0.005585
3565.1986,0.005204
3567.0623,0.005008
3568.9260,0.005128
3570.7896,0.005341
3572.6533,0.005350
3574.5170,0.004818
3576.3807,0.004163
3578.2443,0.003946
3580.1080,0.003891
3581.9717,0.003566
3583.8353,0.003360
3585.6990,0.002213
3587.5627,0.001630
3589.4263,0.002412
3591.2900,0.002275
3593.1537,0.001562
3595.0173,0.001496
3596.8810,0.001195
3598.7447,0.000859
3600.6084,0.000885
3602.4720,0.001120
3604.3357,0.000478
3606.1994,-0.000125
3608.0630,-0.000080
3609.9267,-0.000112
3611.7904,-0.000700
3613.6540,-0.000609
3615.5177,-0.000177
3617.3814,-0.000995
3619.2450,-0.001830
3621.1087,-0.001269
3622.9724,-0.001032
3624.8360,-0.001584
3626.6997,-0.002530
3628.5634,-0.003403
3630.4271,-0.002486
3632.2907,-0.001813
3634.1544,-0.002621
3636.0181,-0.002741
3637.8817,-0.002925
3639.7454,-0.003272
3641.6091,-0.003567
3643.4727,-0.003889
3645.3364,-0.004629
3647.2001,-0.004705
3649.0637,-0.003671
3650.9274,-0.003028
3652.7911,-0.003023
3654.6547,-0.003981
3656.5184,-0.004920
3658.3821,-0.004184
3660.2458,-0.004192
3662.1094,-0.004946
3663.9731,-0.005300
3665.8368,-0.005602
3667.7004,-0.006335
3669.5641,-0.006529
3671.4278,-0.005632
3673.2914,-0.005480
3675.1551,-0.006987
3677.0188,-0.006218
3678.8824,-0.005093
3680.7461,-0.005332
3682.6098,-0.005607
3684.4735,-0.005835
3686.3371,-0.006374
3688.2008,-0.007309
3690.0645,-0.006914
3691.9281,-0.005825
3693.7918,-0.005598
3695.6555,-0.005907
3697.5191,-0.006228
3699.3828,-0.006530
3701.2465,-0.006801
3703.1101,-0.006354
3704.9738,-0.006104
3706.8375,-0.006369
3708.7011,-0.006890
3710.5648,-0.007036
3712.4285,-0.006187
3714.2922,-0.005207
3716.1558,-0.005502
3718.0195,-0.006265
3719.8832,-0.006679
3721.7468,-0.006777
3723.6105,-0.006669
3725.4742,-0.006346
3727.3378,-0.006132
3729.2015,-0.006323
3731.0652,-0.007029
3732.9288,-0.006873
3734.7925,-0.006596
3736.6562,-0.006628
3738.5199,-0.006041
3740.3835,-0.006032
3742.2472,-0.006749
3744.1109,-0.007662
3745.9745,-0.006054
3747.8382,-0.005406
3749.7019,-0.007283
3751.5655,-0.006450
3753.4292,-0.004811
3755.2929,-0.005091
3757.1565,-0.005997
3759.0202,-0.006277
3760.8839,-0.006205
3762.7475,-0.005695
3764.6112,-0.006078
3766.4749,-0.006373
3768.3386,-0.005987
3770.2022,-0.005820
3772.0659,-0.005551
3773.9296,-0.005591
3775.7932,-0.005862
3777.6569,-0.005969
3779.5206,-0.006145
3781.3842,-0.005637
3783.2479,-0.005513
3785.1116,-0.005928
3786.9752,-0.005871
3788.8389,-0.005932
3790.7026,-0.006280
3792.5662,-0.006232
3794.4299,-0.006410
3796.2936,-0.006742
3798.1573,-0.006683
3800.0209,-0.006642
3801.8846,-0.006450
3803.7483,-0.005416
3805.6119,-0.006049
3807.4756,-0.006462
3809.3393,-0.005744
3811.2029,-0.005778
3813.0666,-0.006080
3814.9303,-0.006714
3816.7939,-0.006839
3818.6576,-0.006050
3820.5213,-0.006831
3822.3850,-0.006472
3824.2486,-0.005258
3826.1123,-0.005848
3827.9760,-0.006492
3829.8396,-0.006375
3831.7033,-0.006570
3833.5670,-0.006391
3835.4306,-0.006255
3837.2943,-0.006324
3839.1580,-0.006184
3841.0216,-0.005648
3842.8853,-0.005667
3844.7490,-0.005701
3846.6126,-0.005868
3848.4763,-0.006484
3850.3400,-0.007511
3852.2037,-0.008358
3854.0673,-0.007098
3855.9310,-0.004382
3857.7947,-0.004627
3859.6583,-0.005637
3861.5220,-0.006268
3863.3857,-0.006482
3865.2493,-0.006323
3867.1130,-0.006082
3868.9767,-0.006693
3870.8403,-0.006281
3872.7040,-0.005294
3874.5677,-0.005681
3876.4314,-0.005500
3878.2950,-0.005765
3880.1587,-0.006730
3882.0224,-0.006165
3883.8860,-0.005727
3885.7497,-0.006077
3887.6134,-0.005349
3889.4770,-0.005449
3891.3407,-0.006484
3893.2044,-0.006167
3895.0680,-0.005669
3896.9317,-0.005939
3898.7954,-0.006271
3900.6590,-0.006173
3902.5227,-0.006044
3904.3864,-0.005712
3906.2501,-0.005010
3908.1137,-0.004940
3909.9774,-0.005480
3911.8411,-0.005742
3913.7047,-0.005636
3915.5684,-0.005672
3917.4321,-0.006070
3919.2957,-0.005593
3921.1594,-0.005387
3923.0231,-0.005722
3924.8867,-0.005619
3926.7504,-0.005410
3928.6141,-0.005928
3930.4777,-0.006422
3932.3414,-0.005863
3934.2051,-0.004896
3936.0688,-0.004823
3937.9324,-0.005256
3939.7961,-0.005648
3941.6598,-0.005804
3943.5234,-0.005691
3945.3871,-0.005515
3947.2508,-0.005602
3949.1144,-0.005524
3950.9781,-0.005487
3952.8418,-0.005715
3954.7054,-0.005526
3956.5691,-0.005408
3958.4328,-0.005833
3960.2965,-0.005766
3962.1601,-0.005540
3964.0238,-0.005497
3965.8875,-0.005303
3967.7511,-0.005264
3969.6148,-0.005345
3971.4785,-0.005190
3973.3421,-0.005503
3975.2058,-0.005682
3977.0695,-0.005535
3978.9331,-0.005458
3980.7968,-0.005344
3982.6605,-0.005508
3984.5241,-0.005580
3986.3878,-0.005292
3988.2515,-0.005437
3990.1152,-0.005559
3991.9788,-0.005421
3993.8425,-0.005403
3995.7062,-0.005514
3997.5698,-0.005192
3999.4335,-0.005055
