Wavenumber,Intensity
650.4205,0.100229
652.2841,0.098720
654.1478,0.098005
656.0115,0.098517
657.8751,0.098253
659.7388,0.096973
661.6025,0.096878
663.4661,0.096527
665.3298,0.093245
667.1935,0.092650
669.0571,0.098027
670.9208,0.094597
672.7845,0.090304
674.6481,0.088562
676.5118,0.088763
678.3755,0.089372
680.2392,0.088628
682.1028,0.087142
683.9665,0.085667
685.8302,0.084554
687.6938,0.085154
689.5575,0.084522
691.4212,0.082905
693.2848,0.082479
695.1485,0.082721
697.0122,0.083694
698.8758,0.083832
700.7395,0.082455
702.6032,0.080393
704.4669,0.078295
706.3305,0.077497
708.1942,0.076709
710.0579,0.075632
711.9215,0.075105
713.7852,0.074093
715.6489,0.072807
717.5125,0.071601
719.3762,0.070991
721.2399,0.070934
723.1035,0.070192
724.9672,0.068797
726.8309,0.067648
728.6945,0.066867
730.5582,0.066318
732.4219,0.066536
734.2856,0.066553
736.1492,0.065939
738.0129,0.065781
739.8766,0.066064
741.7402,0.065435
743.6039,0.064257
745.4676,0.064138
747.3312,0.063676
749.1949,0.062592
751.0586,0.062016
752.9222,0.061100
754.7859,0.060492
756.6496,0.060485
758.5132,0.059854
760.3769,0.059341
762.2406,0.058946
764.1043,0.058465
765.9679,0.058308
767.8316,0.057892
769.6953,0.057191
771.5589,0.056762
773.4226,0.056707
775.2863,0.056666
777.1499,0.056114
779.0136,0.055450
780.8773,0.055085
782.7409,0.054622
784.6046,0.053724
786.4683,0.053207
788.3320,0.052978
790.1956,0.052739
792.0593,0.052393
793.9230,0.051675
795.7866,0.051240
797.6503,0.051128
799.5140,0.050869
801.3776,0.050823
803.2413,0.050790
805.1050,0.050207
806.9686,0.049527
808.8323,0.049239
810.6960,0.048947
812.5596,0.048728
814.4233,0.048664
816.2870,0.048533
818.1507,0.048536
820.0143,0.048388
821.8780,0.047894
823.7417,0.047287
825.6053,0.046583
827.4690,0.046035
829.3327,0.045564
831.1963,0.045115
833.0600,0.044585
834.9237,0.043908
836.7873,0.043301
838.6510,0.042908
840.5147,0.042764
842.3784,0.042778
844.2420,0.042397
846.1057,0.042023
847.9694,0.042178
849.8330,0.042214
851.6967,0.042142
853.5604,0.042102
855.4240,0.042058
857.2877,0.042160
859.1514,0.042071
861.0150,0.041972
862.8787,0.041855
864.7424,0.041838
866.6060,0.042134
868.4697,0.042512
870.3334,0.042773
872.1971,0.042912
874.0607,0.042821
875.9244,0.042514
877.7881,0.042346
879.6517,0.042328
881.5154,0.042137
883.3791,0.041987
885.2427,0.041825
887.1064,0.041621
888.9701,0.041539
890.8337,0.041425
892.6974,0.041365
894.5611,0.041497
896.4247,0.041515
898.2884,0.041473
900.1521,0.041476
902.0158,0.041499
903.8794,0.041494
905.7431,0.041685
907.6068,0.041967
909.4704,0.042299
911.3341,0.042690
913.1978,0.043039
915.0614,0.043389
916.9251,0.043720
918.7888,0.043871
920.6524,0.044033
922.5161,0.044001
924.3798,0.044027
926.2435,0.044283
928.1071,0.044499
929.9708,0.044645
931.8345,0.044620
933.6981,0.044528
935.5618,0.044650
937.4255,0.044926
939.2891,0.045098
941.1528,0.045418
943.0165,0.045860
944.8801,0.046196
946.7438,0.046498
948.6075,0.046784
950.4711,0.047249
952.3348,0.047857
954.1985,0.048456
956.0622,0.049171
957.9258,0.050008
959.7895,0.050943
961.6532,0.051968
963.5168,0.052869
965.3805,0.053619
967.2442,0.054124
969.1078,0.054376
970.9715,0.054476
972.8352,0.054484
974.6988,0.054548
976.5625,0.054916
978.4262,0.055438
980.2899,0.056052
982.1535,0.056775
984.0172,0.057337
985.8809,0.057784
987.7445,0.058267
989.6082,0.058874
991.4719,0.059504
993.3355,0.060148
995.1992,0.060916
997.0629,0.061748
998.9265,0.062590
1000.7902,0.063492
1002.6539,0.064432
1004.5175,0.065456
1006.3812,0.066555
1008.2449,0.067767
1010.1086,0.069086
1011.9722,0.070433
1013.8359,0.071935
1015.6996,0.073513
1017.5632,0.075040
1019.4269,0.076363
1021.2906,0.077362
1023.1542,0.078171
1025.0179,0.078963
1026.8816,0.079682
1028.7452,0.080307
1030.6089,0.080802
1032.4726,0.081338
1034.3362,0.081916
1036.1999,0.082411
1038.0636,0.082794
1039.9273,0.083095
1041.7909,0.083363
1043.6546,0.083602
1045.5183,0.083767
1047.3819,0.083928
1049.2456,0.084023
1051.1093,0.084028
1052.9729,0.084052
1054.8366,0.084062
1056.7003,0.084015
1058.5639,0.083791
1060.4276,0.083437
1062.2913,0.083160
1064.1550,0.083023
1066.0186,0.083033
1067.8823,0.083091
1069.7460,0.082912
1071.6096,0.082517
1073.4733,0.082085
1075.3370,0.081512
1077.2006,0.080600
1079.0643,0.079431
1080.9280,0.077923
1082.7916,0.076080
1084.6553,0.074255
1086.5190,0.072428
1088.3826,0.070689
1090.2463,0.069146
1092.1100,0.067790
1093.9737,0.066696
1095.8373,0.065680
1097.7010,0.064704
1099.5647,0.063961
1101.4283,0.063376
1103.2920,0.062834
1105.1557,0.062358
1107.0193,0.062050
1108.8830,0.061876
1110.7467,0.061728
1112.6103,0.061726
1114.4740,0.061735
1116.3377,0.061680
1118.2014,0.061488
1120.0650,0.061121
1121.9287,0.060670
1123.7924,0.060254
1125.6560,0.059755
1127.5197,0.059129
1129.3834,0.058408
1131.2470,0.057672
1133.1107,0.056905
1134.9744,0.056057
1136.8380,0.055264
1138.7017,0.054623
1140.5654,0.054057
1142.4290,0.053750
1144.2927,0.053735
1146.1564,0.053806
1148.0201,0.053937
1149.8837,0.054126
1151.7474,0.054273
1153.6111,0.054380
1155.4747,0.054471
1157.3384,0.054517
1159.2021,0.054535
1161.0657,0.054490
1162.9294,0.054401
1164.7931,0.054288
1166.6567,0.053958
1168.5204,0.053491
1170.3841,0.052877
1172.2477,0.051921
1174.1114,0.050859
1175.9751,0.049802
1177.8388,0.048811
1179.7024,0.048198
1181.5661,0.047839
1183.4298,0.047772
1185.2934,0.048007
1187.1571,0.048379
1189.0208,0.048822
1190.8844,0.049379
1192.7481,0.050166
1194.6118,0.051053
1196.4754,0.051971
1198.3391,0.052961
1200.2028,0.053989
1202.0665,0.055003
1203.9301,0.055999
1205.7938,0.056964
1207.6575,0.057822
1209.5211,0.058512
1211.3848,0.059208
1213.2485,0.060027
1215.1121,0.060819
1216.9758,0.061583
1218.8395,0.062281
1220.7031,0.062913
1222.5668,0.063510
1224.4305,0.064021
1226.2941,0.064411
1228.1578,0.064725
1230.0215,0.064858
1231.8852,0.064899
1233.7488,0.064848
1235.6125,0.064621
1237.4762,0.064313
1239.3398,0.063986
1241.2035,0.063670
1243.0672,0.063211
1244.9308,0.062608
1246.7945,0.061886
1248.6582,0.061214
1250.5218,0.060631
1252.3855,0.060010
1254.2492,0.059391
1256.1129,0.058828
1257.9765,0.058313
1259.8402,0.057905
1261.7039,0.057534
1263.5675,0.057191
1265.4312,0.056933
1267.2949,0.056636
1269.1585,0.056273
1271.0222,0.056099
1272.8859,0.056057
1274.7495,0.055878
1276.6132,0.055743
1278.4769,0.055740
1280.3405,0.055818
1282.2042,0.055716
1284.0679,0.055685
1285.9316,0.055794
1287.7952,0.056060
1289.6589,0.056100
1291.5226,0.055998
1293.3862,0.056044
1295.2499,0.056108
1297.1136,0.056215
1298.9772,0.056291
1300.8409,0.056311
1302.7046,0.056377
1304.5682,0.056404
1306.4319,0.056386
1308.2956,0.056262
1310.1592,0.056055
1312.0229,0.055960
1313.8866,0.055769
1315.7503,0.055328
1317.6139,0.055057
1319.4776,0.054834
1321.3413,0.054213
1323.2049,0.053623
1325.0686,0.053368
1326.9323,0.053124
1328.7959,0.052919
1330.6596,0.052818
1332.5233,0.052711
1334.3869,0.052450
1336.2506,0.052378
1338.1143,0.052992
1339.9780,0.053730
1341.8416,0.053560
1343.7053,0.053214
1345.5690,0.053165
1347.4326,0.053095
1349.2963,0.053244
1351.1600,0.053499
1353.0236,0.053789
1354.8873,0.054269
1356.7510,0.054622
1358.6146,0.054780
1360.4783,0.055599
1362.3420,0.057704
1364.2056,0.059126
1366.0693,0.059335
1367.9330,0.060001
1369.7967,0.060440
1371.6603,0.060739
1373.5240,0.062422
1375.3877,0.063771
1377.2513,0.063894
1379.1150,0.064351
1380.9787,0.064661
1382.8423,0.064648
1384.7060,0.064629
1386.5697,0.065741
1388.4333,0.066244
1390.2970,0.064746
1392.1607,0.063788
1394.0244,0.064493
1395.8880,0.064839
1397.7517,0.064226
1399.6154,0.064066
1401.4790,0.062627
1403.3427,0.061667
1405.2064,0.061465
1407.0700,0.060546
1408.9337,0.059720
1410.7974,0.059261
1412.6610,0.058240
1414.5247,0.057053
1416.3884,0.056597
1418.2520,0.058177
1420.1157,0.058879
1421.9794,0.057196
1423.8431,0.057118
1425.7067,0.056888
1427.5704,0.056677
1429.4341,0.057925
1431.2977,0.058337
1433.1614,0.057834
1435.0251,0.059330
1436.8887,0.063194
1438.7524,0.063021
1440.6161,0.061751
1442.4797,0.061663
1444.3434,0.061461
1446.2071,0.061886
1448.0707,0.062749
1449.9344,0.062127
1451.7981,0.060575
1453.6618,0.058945
1455.5254,0.060015
1457.3891,0.064267
1459.2528,0.061956
1461.1164,0.058428
1462.9801,0.057571
1464.8438,0.058906
1466.7074,0.057860
1468.5711,0.055231
1470.4348,0.054187
1472.2984,0.056071
1474.1621,0.056696
1476.0258,0.056139
1477.8895,0.055594
1479.7531,0.055519
1481.6168,0.056730
1483.4805,0.057352
1485.3441,0.058087
1487.2078,0.060875
1489.0715,0.065874
1490.9351,0.069473
1492.7988,0.068749
1494.6625,0.069701
1496.5261,0.074817
1498.3898,0.078268
1500.2535,0.078446
1502.1171,0.077149
1503.9808,0.076930
1505.8445,0.083948
1507.7082,0.092435
1509.5718,0.090474
1511.4355,0.089434
1513.2992,0.089302
1515.1628,0.089549
1517.0265,0.090365
1518.8902,0.089667
1520.7538,0.091531
1522.6175,0.093156
1524.4812,0.091919
1526.3448,0.092661
1528.2085,0.092067
1530.0722,0.090548
1531.9359,0.090823
1533.7995,0.092009
1535.6632,0.088988
1537.5269,0.087378
1539.3905,0.090642
1541.2542,0.091806
1543.1179,0.088988
1544.9815,0.086650
1546.8452,0.083378
1548.7089,0.080894
1550.5725,0.078522
1552.4362,0.075184
1554.2999,0.072127
1556.1635,0.069349
1558.0272,0.070992
1559.8909,0.071680
1561.7546,0.065927
1563.6182,0.062688
1565.4819,0.060823
1567.3456,0.059233
1569.2092,0.059165
1571.0729,0.057807
1572.9366,0.055301
1574.8002,0.055398
1576.6639,0.056889
1578.5276,0.055197
1580.3912,0.053723
1582.2549,0.053485
1584.1186,0.053613
1585.9822,0.053906
1587.8459,0.054198
1589.7096,0.054570
1591.5733,0.055181
1593.4369,0.056332
1595.3006,0.057791
1597.1643,0.059161
1599.0279,0.060506
1600.8916,0.062301
1602.7553,0.064395
1604.6189,0.066521
1606.4826,0.068943
1608.3463,0.071965
1610.2099,0.074473
1612.0736,0.076096
1613.9373,0.077883
1615.8010,0.082777
1617.6646,0.087469
1619.5283,0.087279
1621.3920,0.088603
1623.2556,0.092836
1625.1193,0.094624
1626.9830,0.095526
1628.8466,0.096781
1630.7103,0.096131
1632.5740,0.095311
1634.4376,0.097546
1636.3013,0.100425
1638.1650,0.098117
1640.0286,0.095590
1641.8923,0.093689
1643.7560,0.092056
1645.6197,0.092138
1647.4833,0.091374
1649.3470,0.087122
1651.2107,0.084895
1653.0743,0.086970
1654.9380,0.082932
1656.8017,0.077744
1658.6653,0.073896
1660.5290,0.070829
1662.3927,0.068597
1664.2563,0.065404
1666.1200,0.061714
1667.9837,0.059680
1669.8474,0.058300
1671.7110,0.055355
1673.5747,0.052579
1675.4384,0.050856
1677.3020,0.047968
1679.1657,0.045176
1681.0294,0.042713
1682.8930,0.041338
1684.7567,0.040043
1686.6204,0.036719
1688.4840,0.033922
1690.3477,0.031249
1692.2114,0.028386
1694.0750,0.025915
1695.9387,0.023495
1697.8024,0.020785
1699.6661,0.018972
1701.5297,0.016983
1703.3934,0.014862
1705.2571,0.013262
1707.1207,0.011901
1708.9844,0.010674
1710.8481,0.009526
1712.7117,0.008688
1714.5754,0.008149
1716.4391,0.007680
1718.3027,0.007280
1720.1664,0.006712
1722.0301,0.006085
1723.8937,0.005812
1725.7574,0.005487
1727.6211,0.005308
1729.4848,0.005141
1731.3484,0.004901
1733.2121,0.004870
1735.0758,0.005430
1736.9394,0.005240
1738.8031,0.005154
1740.6668,0.005100
1742.5304,0.004649
1744.3941,0.004354
1746.2578,0.004212
1748.1214,0.003820
1749.9851,0.003448
1751.8488,0.002896
1753.7125,0.002129
1755.5761,0.001378
1757.4398,0.001001
1759.3035,0.000601
1761.1671,0.000471
1763.0308,0.000466
1764.8945,0.000084
1766.7581,-0.000167
1768.6218,-0.000216
1770.4855,-0.000410
1772.3491,-0.000097
1774.2128,-0.000024
1776.0765,-0.000341
1777.9401,-0.000593
1779.8038,-0.000777
1781.6675,-0.000696
1783.5312,-0.000612
1785.3948,-0.000724
1787.2585,-0.000803
1789.1222,-0.000859
1790.9858,-0.000880
1792.8495,-0.000679
1794.7132,-0.000561
1796.5768,-0.000667
1798.4405,-0.000636
1800.3042,-0.000446
1802.1678,-0.000333
1804.0315,-0.000511
1805.8952,-0.000769
1807.7589,-0.000949
1809.6225,-0.001015
1811.4862,-0.000940
1813.3499,-0.000948
1815.2135,-0.001106
1817.0772,-0.001113
1818.9409,-0.000753
1820.8045,-0.000433
1822.6682,-0.000751
1824.5319,-0.000896
1826.3955,-0.000793
1828.2592,-0.000940
1830.1229,-0.000621
1831.9865,-0.000218
1833.8502,-0.000315
1835.7139,-0.000477
1837.5776,-0.000410
1839.4412,-0.000369
1841.3049,-0.000716
1843.1686,-0.000592
1845.0322,0.000029
1846.8959,-0.000003
1848.7596,-0.000275
1850.6232,-0.000470
1852.4869,-0.000712
1854.3506,-0.000600
1856.2142,-0.000219
1858.0779,0.000064
1859.9416,-0.000096
1861.8052,-0.000418
1863.6689,-0.000448
1865.5326,-0.000308
1867.3963,-0.000213
1869.2599,0.000002
1871.1236,0.000099
1872.9873,0.000273
1874.8509,0.000283
1876.7146,0.000081
1878.5783,-0.000099
1880.4419,-0.000291
1882.3056,-0.000047
1884.1693,0.000335
1886.0329,0.000430
1887.8966,0.000353
1889.7603,0.000283
1891.6240,0.000480
1893.4876,0.000194
1895.3513,-0.000125
1897.2150,0.000063
1899.0786,0.000526
1900.9423,0.000583
1902.8060,0.000495
1904.6696,0.000662
1906.5333,0.000634
1908.3970,0.000626
1910.2606,0.000565
1912.1243,0.000564
1913.9880,0.000510
1915.8516,0.000334
1917.7153,0.000662
1919.5790,0.000648
1921.4427,0.000590
1923.3063,0.000844
1925.1700,0.000786
1927.0337,0.000510
1928.8973,0.000419
1930.7610,0.000699
1932.6247,0.001013
1934.4883,0.000536
1936.3520,0.000185
1938.2157,0.000578
1940.0793,0.000816
1941.9430,0.000931
1943.8067,0.000997
1945.6704,0.000877
1947.5340,0.000398
1949.3977,-0.000073
1951.2614,0.000419
1953.1250,0.001363
1954.9887,0.000967
1956.8524,0.000555
1958.7160,0.001092
1960.5797,0.001811
1962.4434,0.001845
1964.3070,0.001481
1966.1707,0.001754
1968.0344,0.001727
1969.8980,0.001858
1971.7617,0.002202
1973.6254,0.002390
1975.4891,0.002868
1977.3527,0.004157
1979.2164,0.005327
1981.0801,0.004786
1982.9437,0.003190
1984.8074,0.002913
1986.6711,0.003914
1988.5347,0.004562
1990.3984,0.003789
1992.2621,0.003180
1994.1257,0.003165
1995.9894,0.003290
1997.8531,0.003524
1999.7167,0.002998
2001.5804,0.003056
2003.4441,0.003277
2005.3078,0.002822
2007.1714,0.002902
2009.0351,0.002651
2010.8988,0.002221
2012.7624,0.002280
2014.6261,0.003253
2016.4898,0.004826
2018.3534,0.004389
2020.2171,0.003063
2022.0808,0.004372
2023.9444,0.004744
2025.8081,0.002978
2027.6718,0.003161
2029.5355,0.004487
2031.3991,0.005681
2033.2628,0.006719
2035.1265,0.006403
2036.9901,0.006079
2038.8538,0.006524
2040.7175,0.006938
2042.5811,0.006628
2044.4448,0.006788
2046.3085,0.008102
2048.1721,0.009085
2050.0358,0.008891
2051.8995,0.007725
2053.7631,0.007040
2055.6268,0.007089
2057.4905,0.006967
2059.3542,0.006687
2061.2178,0.006163
2063.0815,0.006077
2064.9452,0.006841
2066.8088,0.006715
2068.6725,0.005711
2070.5362,0.005812
2072.3998,0.006281
2074.2635,0.005585
2076.1272,0.005076
2077.9908,0.005221
2079.8545,0.005370
2081.7182,0.005259
2083.5819,0.004950
2085.4455,0.004497
2087.3092,0.003930
2089.1729,0.003706
2091.0365,0.003949
2092.9002,0.003929
2094.7639,0.003847
2096.6275,0.003951
2098.4912,0.003349
2100.3549,0.003098
2102.2185,0.003389
2104.0822,0.003665
2105.9459,0.004205
2107.8095,0.004257
2109.6732,0.004061
2111.5369,0.004030
2113.4006,0.004484
2115.2642,0.004589
2117.1279,0.003837
2118.9916,0.003576
2120.8552,0.003276
2122.7189,0.002649
2124.5826,0.002345
2126.4462,0.002280
2128.3099,0.002261
2130.1736,0.002190
2132.0372,0.002367
2133.9009,0.002580
2135.7646,0.002889
2137.6282,0.003370
2139.4919,0.003393
2141.3556,0.002904
2143.2193,0.002370
2145.0829,0.002855
2146.9466,0.003276
2148.8103,0.002936
2150.6739,0.002864
2152.5376,0.003190
2154.4013,0.004309
2156.2649,0.005032
2158.1286,0.006114
2159.9923,0.008409
2161.8559,0.008445
2163.7196,0.008311
2165.5833,0.009054
2167.4470,0.007724
2169.3106,0.006161
2171.1743,0.005948
2173.0380,0.006280
2174.9016,0.006822
2176.7653,0.006549
2178.6290,0.005724
2180.4926,0.005979
2182.3563,0.007016
2184.2200,0.007278
2186.0836,0.006495
2187.9473,0.006113
2189.8110,0.006318
2191.6746,0.006183
2193.5383,0.006132
2195.4020,0.005993
2197.2657,0.005448
2199.1293,0.006027
2200.9930,0.006731
2202.8567,0.005932
2204.7203,0.005661
2206.5840,0.005824
2208.4477,0.005149
2210.3113,0.005034
2212.1750,0.005366
2214.0387,0.005264
2215.9023,0.005442
2217.7660,0.006140
2219.6297,0.006349
2221.4934,0.005657
2223.3570,0.005300
2225.2207,0.005669
2227.0844,0.005937
2228.9480,0.005378
2230.8117,0.004920
2232.6754,0.005716
2234.5390,0.006425
2236.4027,0.006345
2238.2664,0.005938
2240.1300,0.005718
2241.9937,0.005756
2243.8574,0.005638
2245.7210,0.005416
2247.5847,0.005357
2249.4484,0.005393
2251.3121,0.005012
2253.1757,0.005057
2255.0394,0.005774
2256.9031,0.005780
2258.7667,0.005555
2260.6304,0.005503
2262.4941,0.005145
2264.3577,0.004896
2266.2214,0.004889
2268.0851,0.005150
2269.9487,0.005144
2271.8124,0.004877
2273.6761,0.005484
2275.5397,0.006054
2277.4034,0.005629
2279.2671,0.005607
2281.1308,0.006002
2282.9944,0.006147
2284.8581,0.006090
2286.7218,0.005702
2288.5854,0.005310
2290.4491,0.005303
2292.3128,0.005321
2294.1764,0.005071
2296.0401,0.004628
2297.9038,0.004673
2299.7674,0.004817
2301.6311,0.004446
2303.4948,0.004333
2305.3585,0.004408
2307.2221,0.004598
2309.0858,0.005039
2310.9495,0.005037
2312.8131,0.004892
2314.6768,0.005240
2316.5405,0.005527
2318.4041,0.005580
2320.2678,0.005912
2322.1315,0.006070
2323.9951,0.005855
2325.8588,0.005083
2327.7225,0.004177
2329.5861,0.004006
2331.4498,0.004211
2333.3135,0.004313
2335.1772,0.004221
2337.0408,0.004114
2338.9045,0.004226
2340.7682,0.004915
2342.6318,0.005295
2344.4955,0.005036
2346.3592,0.004869
2348.2228,0.004003
2350.0865,0.002932
2351.9502,0.002754
2353.8138,0.003299
2355.6775,0.003844
2357.5412,0.004017
2359.4049,0.004854
2361.2685,0.005742
2363.1322,0.005775
2364.9959,0.005554
2366.8595,0.005607
2368.7232,0.005449
2370.5869,0.005372
2372.4505,0.005656
2374.3142,0.005428
2376.1779,0.004991
2378.0415,0.004900
2379.9052,0.004904
2381.7689,0.004701
2383.6325,0.004410
2385.4962,0.004108
2387.3599,0.003797
2389.2236,0.003907
2391.0872,0.004020
2392.9509,0.004070
2394.8146,0.004206
2396.6782,0.004134
2398.5419,0.004078
2400.4056,0.004186
2402.2692,0.004119
2404.1329,0.004075
2405.9966,0.004422
2407.8602,0.004832
2409.7239,0.005062
2411.5876,0.005044
2413.4512,0.004689
2415.3149,0.004730
2417.1786,0.004946
2419.0423,0.004624
2420.9059,0.004857
2422.7696,0.005297
2424.6333,0.005320
2426.4969,0.005345
2428.3606,0.005169
2430.2243,0.004963
2432.0879,0.005163
2433.9516,0.005521
2435.8153,0.005450
2437.6789,0.005233
2439.5426,0.005149
2441.4063,0.005396
2443.2700,0.005742
2445.1336,0.005715
2446.9973,0.005672
2448.8610,0.005881
2450.7246,0.005987
2452.5883,0.006144
2454.4520,0.006344
2456.3156,0.006219
2458.1793,0.006019
2460.0430,0.005887
2461.9066,0.005680
2463.7703,0.005711
2465.6340,0.005883
2467.4976,0.006136
2469.3613,0.006355
2471.2250,0.006109
2473.0887,0.006061
2474.9523,0.006459
2476.8160,0.006570
2478.6797,0.006391
2480.5433,0.006436
2482.4070,0.006499
2484.2707,0.006496
2486.1343,0.006703
2487.9980,0.006813
2489.8617,0.006596
2491.7253,0.006453
2493.5890,0.006693
2495.4527,0.006671
2497.3164,0.006581
2499.1800,0.006993
2501.0437,0.007002
2502.9074,0.006564
2504.7710,0.006833
2506.6347,0.007183
2508.4984,0.007148
2510.3620,0.007259
2512.2257,0.007346
2514.0894,0.007018
2515.9530,0.006956
2517.8167,0.007220
2519.6804,0.007424
2521.5440,0.007437
2523.4077,0.007163
2525.2714,0.007006
2527.1351,0.007121
2528.9987,0.007278
2530.8624,0.007519
2532.7261,0.007709
2534.5897,0.008054
2536.4534,0.008198
2538.3171,0.007958
2540.1807,0.007938
2542.0444,0.007799
2543.9081,0.007682
2545.7717,0.007789
2547.6354,0.007843
2549.4991,0.007935
2551.3627,0.008204
2553.2264,0.008245
2555.0901,0.008089
2556.9538,0.008340
2558.8174,0.008547
2560.6811,0.008360
2562.5448,0.008213
2564.4084,0.008200
2566.2721,0.008395
2568.1358,0.008563
2569.9994,0.008760
2571.8631,0.008704
2573.7268,0.008463
2575.5904,0.008495
2577.4541,0.008697
2579.3178,0.008537
2581.1815,0.008673
2583.0451,0.008858
2584.9088,0.008891
2586.7725,0.009104
2588.6361,0.009262
2590.4998,0.009426
2592.3635,0.009495
2594.2271,0.009515
2596.0908,0.009508
2597.9545,0.009683
2599.8181,0.009647
2601.6818,0.009670
2603.5455,0.009756
2605.4091,0.009819
2607.2728,0.009776
2609.1365,0.009771
2611.0002,0.010136
2612.8638,0.010312
2614.7275,0.010194
2616.5912,0.010418
2618.4548,0.010649
2620.3185,0.010621
2622.1822,0.010513
2624.0458,0.010649
2625.9095,0.010664
2627.7732,0.010647
2629.6368,0.010736
2631.5005,0.010744
2633.3642,0.010864
2635.2279,0.011052
2637.0915,0.011200
2638.9552,0.011279
2640.8189,0.011248
2642.6825,0.011206
2644.5462,0.011215
2646.4099,0.011329
2648.2735,0.011343
2650.1372,0.011431
2652.0009,0.011475
2653.8645,0.011467
2655.7282,0.011408
2657.5919,0.011134
2659.4555,0.011079
2661.3192,0.011215
2663.1829,0.011278
2665.0466,0.011104
2666.9102,0.011012
2668.7739,0.011129
2670.6376,0.011270
2672.5012,0.011259
2674.3649,0.011210
2676.2286,0.011285
2678.0922,0.011369
2679.9559,0.011494
2681.8196,0.011441
2683.6832,0.011290
2685.5469,0.011381
2687.4106,0.011545
2689.2742,0.011611
2691.1379,0.011592
2693.0016,0.011761
2694.8653,0.011991
2696.7289,0.012020
2698.5926,0.011977
2700.4563,0.012067
2702.3199,0.012207
2704.1836,0.012291
2706.0473,0.012317
2707.9109,0.012407
2709.7746,0.012609
2711.6383,0.012636
2713.5019,0.012720
2715.3656,0.012852
2717.2293,0.012909
2719.0930,0.013055
2720.9566,0.013215
2722.8203,0.013321
2724.6840,0.013551
2726.5476,0.013644
2728.4113,0.013697
2730.2750,0.013837
2732.1386,0.013856
2734.0023,0.013886
2735.8660,0.014062
2737.7296,0.014210
2739.5933,0.014411
2741.4570,0.014561
2743.3206,0.014572
2745.1843,0.014601
2747.0480,0.014709
2748.9117,0.014643
2750.7753,0.014799
2752.6390,0.014862
2754.5027,0.014925
2756.3663,0.015015
2758.2300,0.015197
2760.0937,0.015426
2761.9573,0.015573
2763.8210,0.015668
2765.6847,0.015709
2767.5483,0.015819
2769.4120,0.015974
2771.2757,0.016080
2773.1394,0.016322
2775.0030,0.016355
2776.8667,0.016318
2778.7304,0.016589
2780.5940,0.016808
2782.4577,0.016986
2784.3214,0.017267
2786.1850,0.017451
2788.0487,0.017506
2789.9124,0.017602
2791.7760,0.017696
2793.6397,0.017761
2795.5034,0.017954
2797.3670,0.017949
2799.2307,0.017981
2801.0944,0.018278
2802.9581,0.018568
2804.8217,0.018562
2806.6854,0.018672
2808.5491,0.018876
2810.4127,0.019103
2812.2764,0.019124
2814.1401,0.019318
2816.0037,0.019638
2817.8674,0.019751
2819.7311,0.019842
2821.5947,0.020066
2823.4584,0.020349
2825.3221,0.020554
2827.1857,0.020936
2829.0494,0.021252
2830.9131,0.021401
2832.7768,0.021744
2834.6404,0.022058
2836.5041,0.022229
2838.3678,0.022596
2840.2314,0.023243
2842.0951,0.023982
2843.9588,0.024854
2845.8224,0.025526
2847.6861,0.026140
2849.5498,0.026885
2851.4134,0.027432
2853.2771,0.027592
2855.1408,0.027434
2857.0045,0.027058
2858.8681,0.026764
2860.7318,0.026857
2862.5955,0.026928
2864.4591,0.026967
2866.3228,0.027523
2868.1865,0.027940
2870.0501,0.028096
2871.9138,0.027959
2873.7775,0.028044
2875.6411,0.027955
2877.5048,0.027522
2879.3685,0.027256
2881.2321,0.027442
2883.0958,0.027694
2884.9595,0.027764
2886.8232,0.027864
2888.6868,0.027988
2890.5505,0.028099
2892.4142,0.028385
2894.2778,0.028478
2896.1415,0.028738
2898.0052,0.029172
2899.8688,0.029498
2901.7325,0.030056
2903.5962,0.030369
2905.4598,0.030548
2907.3235,0.031257
2909.1872,0.031909
2911.0509,0.032440
2912.9145,0.033001
2914.7782,0.033393
2916.6419,0.033892
2918.5055,0.034466
2920.3692,0.034754
2922.2329,0.035219
2924.0965,0.035440
2925.9602,0.035054
2927.8239,0.034341
2929.6875,0.034068
2931.5512,0.033929
2933.4149,0.033519
2935.2785,0.032889
2937.1422,0.032311
2939.0059,0.031888
2940.8696,0.031560
2942.7332,0.031113
2944.5969,0.030646
2946.4606,0.030522
2948.3242,0.030491
2950.1879,0.030528
2952.0516,0.030461
2953.9152,0.030459
2955.7789,0.030481
2957.6426,0.030466
2959.5062,0.030550
2961.3699,0.030375
2963.2336,0.029864
2965.0972,0.029348
2966.9609,0.029026
2968.8246,0.028618
2970.6883,0.028046
2972.5519,0.027341
2974.4156,0.026884
2976.2793,0.026507
2978.1429,0.026030
2980.0066,0.025592
2981.8703,0.024909
2983.7339,0.024487
2985.5976,0.024196
2987.4613,0.023841
2989.3249,0.023742
2991.1886,0.023790
2993.0523,0.023597
2994.9160,0.023343
2996.7796,0.023315
2998.6433,0.023276
3000.5070,0.023267
3002.3706,0.023274
3004.2343,0.023440
3006.0980,0.023544
3007.9616,0.023724
3009.8253,0.023989
3011.6890,0.024158
3013.5526,0.024151
3015.4163,0.024259
3017.2800,0.024352
3019.1436,0.024535
3021.0073,0.024682
3022.8710,0.024960
3024.7347,0.025063
3026.5983,0.024998
3028.4620,0.025358
3030.3257,0.025824
3032.1893,0.026143
3034.0530,0.026216
3035.9167,0.026095
3037.7803,0.026335
3039.6440,0.026580
3041.5077,0.026741
3043.3713,0.026977
3045.2350,0.027080
3047.0987,0.027285
3048.9624,0.027622
3050.8260,0.027615
3052.6897,0.027824
3054.5534,0.027984
3056.4170,0.027985
3058.2807,0.028029
3060.1444,0.028480
3062.0080,0.028713
3063.8717,0.028642
3065.7354,0.028858
3067.5990,0.028877
3069.4627,0.028676
3071.3264,0.028727
3073.1900,0.028819
3075.0537,0.028885
3076.9174,0.028839
3078.7811,0.029133
3080.6447,0.029182
3082.5084,0.028963
3084.3721,0.028706
3086.2357,0.028230
3088.0994,0.028378
3089.9631,0.028753
3091.8267,0.028574
3093.6904,0.028366
3095.5541,0.028533
3097.4177,0.028611
3099.2814,0.028367
3101.1451,0.028185
3103.0087,0.028289
3104.8724,0.028605
3106.7361,0.028542
3108.5998,0.028573
3110.4634,0.028713
3112.3271,0.028959
3114.1908,0.028875
3116.0544,0.028942
3117.9181,0.028737
3119.7818,0.028405
3121.6454,0.028819
3123.5091,0.029365
3125.3728,0.029368
3127.2364,0.029588
3129.1001,0.030097
3130.9638,0.029999
3132.8275,0.029793
3134.6911,0.030221
3136.5548,0.030439
3138.4185,0.030494
3140.2821,0.030674
3142.1458,0.030962
3144.0095,0.031424
3145.8731,0.031698
3147.7368,0.031726
3149.6005,0.031814
3151.4641,0.032038
3153.3278,0.032540
3155.1915,0.032789
3157.0551,0.032822
3158.9188,0.033005
3160.7825,0.033557
3162.6462,0.034153
3164.5098,0.034306
3166.3735,0.034147
3168.2372,0.034358
3170.1008,0.034819
3171.9645,0.035297
3173.8282,0.035463
3175.6918,0.035485
3177.5555,0.035961
3179.4192,0.036731
3181.2828,0.036562
3183.1465,0.036303
3185.0102,0.036224
3186.8739,0.036532
3188.7375,0.037014
3190.6012,0.037260
3192.4649,0.037568
3194.3285,0.037688
3196.1922,0.037888
3198.0559,0.038349
3199.9195,0.038169
3201.7832,0.038174
3203.6469,0.038533
3205.5105,0.038958
3207.3742,0.038833
3209.2379,0.038911
3211.1015,0.039198
3212.9652,0.039524
3214.8289,0.039696
3216.6926,0.039845
3218.5562,0.039765
3220.4199,0.039992
3222.2836,0.040256
3224.1472,0.040290
3226.0109,0.040654
3227.8746,0.041275
3229.7382,0.041161
3231.6019,0.040832
3233.4656,0.041257
3235.3292,0.041696
3237.1929,0.042123
3239.0566,0.042286
3240.9202,0.042151
3242.7839,0.042545
3244.6476,0.043100
3246.5113,0.043576
3248.3749,0.043601
3250.2386,0.043393
3252.1023,0.043726
3253.9659,0.044169
3255.8296,0.044091
3257.6933,0.044188
3259.5569,0.044812
3261.4206,0.045415
3263.2843,0.045594
3265.1479,0.045428
3267.0116,0.045190
3268.8753,0.045790
3270.7390,0.045968
3272.6026,0.045684
3274.4663,0.045520
3276.3300,0.045328
3278.1936,0.045055
3280.0573,0.045008
3281.9210,0.045038
3283.7846,0.044832
3285.6483,0.044515
3287.5120,0.044662
3289.3756,0.044723
3291.2393,0.044475
3293.1030,0.044060
3294.9666,0.043818
3296.8303,0.043727
3298.6940,0.043337
3300.5577,0.042592
3302.4213,0.042212
3304.2850,0.042339
3306.1487,0.042024
3308.0123,0.041214
3309.8760,0.040626
3311.7397,0.040344
3313.6033,0.040399
3315.4670,0.040050
3317.3307,0.039608
3319.1943,0.039085
3321.0580,0.038607
3322.9217,0.038826
3324.7854,0.038870
3326.6490,0.038402
3328.5127,0.038076
3330.3764,0.037301
3332.2400,0.036847
3334.1037,0.036948
3335.9674,0.036963
3337.8310,0.036459
3339.6947,0.036233
3341.5584,0.035909
3343.4220,0.035396
3345.2857,0.035490
3347.1494,0.035460
3349.0130,0.034721
3350.8767,0.034269
3352.7404,0.034235
3354.6041,0.034436
3356.4677,0.034134
3358.3314,0.033392
3360.1951,0.033097
3362.0587,0.032901
3363.9224,0.032487
3365.7861,0.032425
3367.6497,0.031937
3369.5134,0.031513
3371.3771,0.031878
3373.2407,0.032234
3375.1044,0.032001
3376.9681,0.031617
3378.8317,0.031201
3380.6954,0.030927
3382.5591,0.030604
3384.4228,0.030410
3386.2864,0.030388
3388.1501,0.030181
3390.0138,0.029910
3391.8774,0.029638
3393.7411,0.029239
3395.6048,0.029368
3397.4684,0.029244
3399.3321,0.028615
3401.1958,0.028485
3403.0594,0.028629
3404.9231,0.028174
3406.7868,0.027573
3408.6505,0.027595
3410.5141,0.027575
3412.3778,0.027342
3414.2415,0.027221
3416.1051,0.027162
3417.9688,0.027102
3419.8325,0.026584
3421.6961,0.025968
3423.5598,0.025982
3425.4235,0.025952
3427.2871,0.025707
3429.1508,0.025552
3431.0145,0.025228
3432.8781,0.024853
3434.7418,0.024795
3436.6055,0.024404
3438.4692,0.023984
3440.3328,0.023892
3442.1965,0.024006
3444.0602,0.023775
3445.9238,0.023057
3447.7875,0.023250
3449.6512,0.023171
3451.5148,0.022470
3453.3785,0.022004
3455.2422,0.022073
3457.1058,0.021979
3458.9695,0.021768
3460.8332,0.021668
3462.6969,0.021435
3464.5605,0.020968
3466.4242,0.020515
3468.2879,0.020557
3470.1515,0.021231
3472.0152,0.021435
3473.8789,0.020362
3475.7425,0.019085
3477.6062,0.018711
3479.4699,0.019059
3481.3335,0.019029
3483.1972,0.018807
3485.0609,0.018742
3486.9245,0.018335
3488.7882,0.018047
3490.6519,0.018013
3492.5156,0.017792
3494.3792,0.017061
3496.2429,0.016120
3498.1066,0.015898
3499.9702,0.016351
3501.8339,0.016004
3503.6976,0.015207
3505.5612,0.014501
3507.4249,0.014270
3509.2886,0.014697
3511.1522,0.014679
3513.0159,0.014523
3514.8796,0.014524
3516.7432,0.014112
3518.6069,0.013605
3520.4706,0.013149
3522.3343,0.012458
3524.1979,0.012086
3526.0616,0.012340
3527.9253,0.012122
3529.7889,0.011582
3531.6526,0.011573
3533.5163,0.011604
3535.3799,0.011172
3537.2436,0.010924
3539.1073,0.010215
3540.9709,0.009820
3542.8346,0.010276
3544.6983,0.009760
3546.5620,0.009072
3548.4256,0.009297
3550.2893,0.009422
3552.1530,0.008760
3554.0166,0.007804
3555.8803,0.007395
3557.7440,0.007180
3559.6076,0.006722
3561.4713,0.006752
3563.3350,0.007126
3565.1986,0.006601
3567.0623,0.005834
3568.9260,0.005603
3570.7896,0.005592
3572.6533,0.005217
3574.5170,0.004579
3576.3807,0.004407
3578.2443,0.004399
3580.1080,0.004499
3581.9717,0.004080
3583.8353,0.002989
3585.6990,0.002744
3587.5627,0.002981
3589.4263,0.002623
3591.2900,0.002267
3593.1537,0.002047
3595.0173,0.001639
3596.8810,0.001273
3598.7447,0.001539
3600.6084,0.001913
3602.4720,0.001566
3604.3357,0.000615
3606.1994,-0.000182
3608.0630,-0.000274
3609.9267,0.000153
3611.7904,0.000747
3613.6540,0.000729
3615.5177,-0.000043
3617.3814,-0.000874
3619.2450,-0.001506
3621.1087,-0.001574
3622.9724,-0.001764
3624.8360,-0.002222
3626.6997,-0.002203
3628.5634,-0.002250
3630.4271,-0.002338
3632.2907,-0.002712
3634.1544,-0.003231
3636.0181,-0.003089
3637.8817,-0.003044
3639.7454,-0.003147
3641.6091,-0.003093
3643.4727,-0.003286
3645.3364,-0.003987
3647.2001,-0.004599
3649.0637,-0.004241
3650.9274,-0.003857
3652.7911,-0.004222
3654.6547,-0.004783
3656.5184,-0.005139
3658.3821,-0.005058
3660.2458,-0.005057
3662.1094,-0.005419
3663.9731,-0.005709
3665.8368,-0.005728
3667.7004,-0.005907
3669.5641,-0.006303
3671.4278,-0.005991
3673.2914,-0.005794
3675.1551,-0.006607
3677.0188,-0.006547
3678.8824,-0.005520
3680.7461,-0.005562
3682.6098,-0.006335
3684.4735,-0.006873
3686.3371,-0.007027
3688.2008,-0.007121
3690.0645,-0.006926
3691.9281,-0.006535
3693.7918,-0.006304
3695.6555,-0.006583
3697.5191,-0.006745
3699.3828,-0.006489
3701.2465,-0.006475
3703.1101,-0.006728
3704.9738,-0.006642
3706.8375,-0.006639
3708.7011,-0.006837
3710.5648,-0.006735
3712.4285,-0.006826
3714.2922,-0.006722
3716.1558,-0.006261
3718.0195,-0.006269
3719.8832,-0.006483
3721.7468,-0.006620
3723.6105,-0.006932
3725.4742,-0.007126
3727.3378,-0.006918
3729.2015,-0.006510
3731.0652,-0.006599
3732.9288,-0.007075
3734.7925,-0.007195
3736.6562,-0.007192
3738.5199,-0.006777
3740.3835,-0.006487
3742.2472,-0.006916
3744.1109,-0.007310
3745.9745,-0.007017
3747.8382,-0.006685
3749.7019,-0.006938
3751.5655,-0.007317
3753.4292,-0.007290
3755.2929,-0.006869
3757.1565,-0.006747
3759.0202,-0.006861
3760.8839,-0.006463
3762.7475,-0.006033
3764.6112,-0.006087
3766.4749,-0.006237
3768.3386,-0.006658
3770.2022,-0.007139
3772.0659,-0.006781
3773.9296,-0.006596
3775.7932,-0.006672
3777.6569,-0.006839
3779.5206,-0.006543
3781.3842,-0.005971
3783.2479,-0.006210
3785.1116,-0.006453
3786.9752,-0.006278
3788.8389,-0.006322
3790.7026,-0.006608
3792.5662,-0.006671
3794.4299,-0.006757
3796.2936,-0.006826
3798.1573,-0.006515
3800.0209,-0.006493
3801.8846,-0.006825
3803.7483,-0.006459
3805.6119,-0.006361
3807.4756,-0.006920
3809.3393,-0.006754
3811.2029,-0.006411
3813.0666,-0.006580
3814.9303,-0.007185
3816.7939,-0.007182
3818.6576,-0.006427
3820.5213,-0.006625
3822.3850,-0.007109
3824.2486,-0.006828
3826.1123,-0.006693
3827.9760,-0.006686
3829.8396,-0.006664
3831.7033,-0.006780
3833.5670,-0.006861
3835.4306,-0.006743
3837.2943,-0.007002
3839.1580,-0.006923
3841.0216,-0.006690
3842.8853,-0.006604
3844.7490,-0.006376
3846.6126,-0.006243
3848.4763,-0.006544
3850.3400,-0.006864
3852.2037,-0.007310
3854.0673,-0.007235
3855.9310,-0.006439
3857.7947,-0.006172
3859.6583,-0.006358
3861.5220,-0.006658
3863.3857,-0.006824
3865.2493,-0.006674
3867.1130,-0.006532
3868.9767,-0.006528
3870.8403,-0.006674
3872.7040,-0.006475
3874.5677,-0.006534
3876.4314,-0.006622
3878.2950,-0.006935
3880.1587,-0.007026
3882.0224,-0.006289
3883.8860,-0.006216
3885.7497,-0.006381
3887.6134,-0.006007
3889.4770,-0.006232
3891.3407,-0.006458
3893.2044,-0.006323
3895.0680,-0.006337
3896.9317,-0.006554
3898.7954,-0.006531
3900.6590,-0.006460
3902.5227,-0.006748
3904.3864,-0.006546
3906.2501,-0.005990
3908.1137,-0.006016
3909.9774,-0.006207
3911.8411,-0.006465
3913.7047,-0.006323
3915.5684,-0.006204
3917.4321,-0.006296
3919.2957,-0.006177
3921.1594,-0.005799
3923.0231,-0.006057
3924.8867,-0.006477
3926.7504,-0.006260
3928.6141,-0.005949
3930.4777,-0.005972
3932.3414,-0.006135
3934.2051,-0.005988
3936.0688,-0.006016
3937.9324,-0.006210
3939.7961,-0.005891
3941.6598,-0.006373
3943.5234,-0.006673
3945.3871,-0.006019
3947.2508,-0.005871
3949.1144,-0.006195
3950.9781,-0.006478
3952.8418,-0.006330
3954.7054,-0.005736
3956.5691,-0.005836
3958.4328,-0.006070
3960.2965,-0.005900
3962.1601,-0.005881
3964.0238,-0.006163
3965.8875,-0.006140
3967.7511,-0.005790
3969.6148,-0.005605
3971.4785,-0.005863
3973.3421,-0.006068
3975.2058,-0.006217
3977.0695,-0.006224
3978.9331,-0.005995
3980.7968,-0.005692
3982.6605,-0.005904
3984.5241,-0.006043
3986.3878,-0.006087
3988.2515,-0.006337
3990.1152,-0.006302
3991.9788,-0.006025
3993.8425,-0.006176
3995.7062,-0.006098
3997.5698,-0.006043
3999.4335,-0.006136
