Wavenumber,Intensity
650.4205,0.172270
652.2841,0.172788
654.1478,0.172817
656.0115,0.170092
657.8751,0.168674
659.7388,0.169659
661.6025,0.167439
663.4661,0.166041
665.3298,0.165551
667.1935,0.164718
669.0571,0.166370
670.9208,0.164597
672.7845,0.161409
674.6481,0.160606
676.5118,0.160816
678.3755,0.161401
680.2392,0.159849
682.1028,0.157250
683.9665,0.155535
685.8302,0.154888
687.6938,0.154190
689.5575,0.153891
691.4212,0.152515
693.2848,0.151725
695.1485,0.151771
697.0122,0.151639
698.8758,0.150139
700.7395,0.148583
702.6032,0.147343
704.4669,0.146751
706.3305,0.144879
708.1942,0.143155
710.0579,0.141517
711.9215,0.140566
713.7852,0.139720
715.6489,0.138285
717.5125,0.136478
719.3762,0.136144
721.2399,0.135758
723.1035,0.134088
724.9672,0.132269
726.8309,0.131487
728.6945,0.130406
730.5582,0.129643
732.4219,0.128959
734.2856,0.128377
736.1492,0.127403
738.0129,0.125832
739.8766,0.125218
741.7402,0.125340
743.6039,0.125035
745.4676,0.124465
747.3312,0.123769
749.1949,0.123190
751.0586,0.121415
752.9222,0.119627
754.7859,0.118647
756.6496,0.117593
758.5132,0.116545
760.3769,0.115605
762.2406,0.114818
764.1043,0.114861
765.9679,0.114024
767.8316,0.113044
769.6953,0.112099
771.5589,0.111129
773.4226,0.110276
775.2863,0.109133
777.1499,0.107682
779.0136,0.107029
780.8773,0.106599
782.7409,0.105982
784.6046,0.104853
786.4683,0.103747
788.3320,0.102645
790.1956,0.101333
792.0593,0.100272
793.9230,0.099715
795.7866,0.098952
797.6503,0.098104
799.5140,0.097019
801.3776,0.096573
803.2413,0.096191
805.1050,0.095650
806.9686,0.095335
808.8323,0.095016
810.6960,0.094305
812.5596,0.093603
814.4233,0.092966
816.2870,0.092384
818.1507,0.091549
820.0143,0.090198
821.8780,0.089130
823.7417,0.088533
825.6053,0.087420
827.4690,0.086148
829.3327,0.084951
831.1963,0.083945
833.0600,0.083014
834.9237,0.082145
836.7873,0.081440
838.6510,0.080813
840.5147,0.079883
842.3784,0.079140
844.2420,0.078645
846.1057,0.078222
847.9694,0.077747
849.8330,0.077422
851.6967,0.077100
853.5604,0.076499
855.4240,0.075933
857.2877,0.075684
859.1514,0.075295
861.0150,0.074932
862.8787,0.074688
864.7424,0.074481
866.6060,0.074322
868.4697,0.074338
870.3334,0.074138
872.1971,0.074026
874.0607,0.074051
875.9244,0.073610
877.7881,0.072901
879.6517,0.072299
881.5154,0.071632
883.3791,0.070710
885.2427,0.069809
887.1064,0.069289
888.9701,0.068880
890.8337,0.068624
892.6974,0.068363
894.5611,0.068052
896.4247,0.067826
898.2884,0.067272
900.1521,0.066571
902.0158,0.066151
903.8794,0.065684
905.7431,0.065368
907.6068,0.065311
909.4704,0.065415
911.3341,0.065662
913.1978,0.065869
915.0614,0.066016
916.9251,0.066269
918.7888,0.066537
920.6524,0.066772
922.5161,0.066873
924.3798,0.066969
926.2435,0.066931
928.1071,0.066945
929.9708,0.066977
931.8345,0.066916
933.6981,0.066797
935.5618,0.067004
937.4255,0.067333
939.2891,0.067829
941.1528,0.068730
943.0165,0.069604
944.8801,0.070270
946.7438,0.070969
948.6075,0.071517
950.4711,0.071687
952.3348,0.071813
954.1985,0.072253
956.0622,0.073111
957.9258,0.074628
959.7895,0.076507
961.6532,0.078688
963.5168,0.081117
965.3805,0.083545
967.2442,0.085678
969.1078,0.087155
970.9715,0.088056
972.8352,0.088741
974.6988,0.089581
976.5625,0.090775
978.4262,0.092213
980.2899,0.093720
982.1535,0.095355
984.0172,0.096923
985.8809,0.098224
987.7445,0.099353
989.6082,0.100292
991.4719,0.101247
993.3355,0.102431
995.1992,0.103729
997.0629,0.105013
998.9265,0.106148
1000.7902,0.107142
1002.6539,0.108320
1004.5175,0.109750
1006.3812,0.111568
1008.2449,0.114068
1010.1086,0.117060
1011.9722,0.120409
1013.8359,0.123891
1015.6996,0.127481
1017.5632,0.130949
1019.4269,0.133769
1021.2906,0.136077
1023.1542,0.137887
1025.0179,0.139347
1026.8816,0.140854
1028.7452,0.142368
1030.6089,0.143780
1032.4726,0.145046
1034.3362,0.146029
1036.1999,0.146644
1038.0636,0.146991
1039.9273,0.147139
1041.7909,0.147066
1043.6546,0.146975
1045.5183,0.146938
1047.3819,0.146875
1049.2456,0.147034
1051.1093,0.147396
1052.9729,0.147899
1054.8366,0.148566
1056.7003,0.149345
1058.5639,0.150069
1060.4276,0.150613
1062.2913,0.151217
1064.1550,0.151949
1066.0186,0.152672
1067.8823,0.153309
1069.7460,0.153713
1071.6096,0.153808
1073.4733,0.153424
1075.3370,0.152390
1077.2006,0.150769
1079.0643,0.148465
1080.9280,0.145541
1082.7916,0.142151
1084.6553,0.138414
1086.5190,0.134629
1088.3826,0.131021
1090.2463,0.127789
1092.1100,0.125036
1093.9737,0.122700
1095.8373,0.120643
1097.7010,0.118496
1099.5647,0.116391
1101.4283,0.114616
1103.2920,0.113022
1105.1557,0.111570
1107.0193,0.110375
1108.8830,0.109392
1110.7467,0.108483
1112.6103,0.107530
1114.4740,0.106574
1116.3377,0.105367
1118.2014,0.103947
1120.0650,0.102565
1121.9287,0.101138
1123.7924,0.099588
1125.6560,0.097989
1127.5197,0.096329
1129.3834,0.094639
1131.2470,0.092811
1133.1107,0.090936
1134.9744,0.089024
1136.8380,0.087021
1138.7017,0.085319
1140.5654,0.083964
1142.4290,0.082794
1144.2927,0.082028
1146.1564,0.081745
1148.0201,0.081574
1149.8837,0.081484
1151.7474,0.081506
1153.6111,0.081394
1155.4747,0.081090
1157.3384,0.080630
1159.2021,0.079982
1161.0657,0.079250
1162.9294,0.078535
1164.7931,0.077532
1166.6567,0.076192
1168.5204,0.074639
1170.3841,0.072723
1172.2477,0.070475
1174.1114,0.068127
1175.9751,0.065947
1177.8388,0.064116
1179.7024,0.062802
1181.5661,0.062020
1183.4298,0.061755
1185.2934,0.061886
1187.1571,0.062281
1189.0208,0.062738
1190.8844,0.063208
1192.7481,0.063841
1194.6118,0.064632
1196.4754,0.065571
1198.3391,0.066588
1200.2028,0.067692
1202.0665,0.068855
1203.9301,0.069883
1205.7938,0.070779
1207.6575,0.071450
1209.5211,0.071814
1211.3848,0.072245
1213.2485,0.072872
1215.1121,0.073612
1216.9758,0.074649
1218.8395,0.075941
1220.7031,0.077371
1222.5668,0.078850
1224.4305,0.080389
1226.2941,0.081970
1228.1578,0.083414
1230.0215,0.084747
1231.8852,0.085997
1233.7488,0.087105
1235.6125,0.087864
1237.4762,0.088480
1239.3398,0.088926
1241.2035,0.088976
1243.0672,0.088652
1244.9308,0.087973
1246.7945,0.087092
1248.6582,0.086231
1250.5218,0.085319
1252.3855,0.084352
1254.2492,0.083450
1256.1129,0.082601
1257.9765,0.081797
1259.8402,0.081148
1261.7039,0.080565
1263.5675,0.080051
1265.4312,0.079671
1267.2949,0.079282
1269.1585,0.078898
1271.0222,0.078624
1272.8859,0.078349
1274.7495,0.078085
1276.6132,0.077983
1278.4769,0.077850
1280.3405,0.077651
1282.2042,0.077522
1284.0679,0.077436
1285.9316,0.077315
1287.7952,0.077346
1289.6589,0.077410
1291.5226,0.077584
1293.3862,0.077942
1295.2499,0.078387
1297.1136,0.078942
1298.9772,0.079713
1300.8409,0.080583
1302.7046,0.081378
1304.5682,0.081969
1306.4319,0.082614
1308.2956,0.083348
1310.1592,0.084005
1312.0229,0.084728
1313.8866,0.085178
1315.7503,0.085372
1317.6139,0.085578
1319.4776,0.085490
1321.3413,0.084950
1323.2049,0.084587
1325.0686,0.084386
1326.9323,0.084021
1328.7959,0.083769
1330.6596,0.083755
1332.5233,0.083785
1334.3869,0.083744
1336.2506,0.083991
1338.1143,0.084784
1339.9780,0.085494
1341.8416,0.085108
1343.7053,0.084572
1345.5690,0.084397
1347.4326,0.084206
1349.2963,0.083945
1351.1600,0.083675
1353.0236,0.083493
1354.8873,0.083391
1356.7510,0.083198
1358.6146,0.083255
1360.4783,0.084232
1362.3420,0.086234
1364.2056,0.087401
1366.0693,0.088198
1367.9330,0.090013
1369.7967,0.091599
1371.6603,0.093140
1373.5240,0.095868
1375.3877,0.097988
1377.2513,0.099000
1379.1150,0.100163
1380.9787,0.100970
1382.8423,0.101540
1384.7060,0.102372
1386.5697,0.104715
1388.4333,0.106300
1390.2970,0.105938
1392.1607,0.106188
1394.0244,0.108038
1395.8880,0.109379
1397.7517,0.109925
1399.6154,0.110424
1401.4790,0.109258
1403.3427,0.108969
1405.2064,0.109030
1407.0700,0.107930
1408.9337,0.106666
1410.7974,0.105564
1412.6610,0.103821
1414.5247,0.101741
1416.3884,0.100603
1418.2520,0.101442
1420.1157,0.100537
1421.9794,0.098147
1423.8431,0.097540
1425.7067,0.096767
1427.5704,0.096589
1429.4341,0.097809
1431.2977,0.098401
1433.1614,0.098552
1435.0251,0.101148
1436.8887,0.105654
1438.7524,0.106150
1440.6161,0.106070
1442.4797,0.106538
1444.3434,0.106881
1446.2071,0.107842
1448.0707,0.108862
1449.9344,0.107757
1451.7981,0.105933
1453.6618,0.104150
1455.5254,0.105024
1457.3891,0.106505
1459.2528,0.102296
1461.1164,0.097954
1462.9801,0.096150
1464.8438,0.095673
1466.7074,0.092811
1468.5711,0.089616
1470.4348,0.088376
1472.2984,0.088859
1474.1621,0.087106
1476.0258,0.085049
1477.8895,0.083031
1479.7531,0.081997
1481.6168,0.081927
1483.4805,0.081708
1485.3441,0.082426
1487.2078,0.085443
1489.0715,0.090384
1490.9351,0.093814
1492.7988,0.094234
1494.6625,0.097184
1496.5261,0.103788
1498.3898,0.108953
1500.2535,0.110935
1502.1171,0.111513
1503.9808,0.114151
1505.8445,0.125510
1507.7082,0.137509
1509.5718,0.138351
1511.4355,0.140017
1513.2992,0.143158
1515.1628,0.146586
1517.0265,0.149671
1518.8902,0.150649
1520.7538,0.154561
1522.6175,0.157728
1524.4812,0.158695
1526.3448,0.161069
1528.2085,0.162094
1530.0722,0.162066
1531.9359,0.164058
1533.7995,0.167049
1535.6632,0.165114
1537.5269,0.164415
1539.3905,0.169278
1541.2542,0.172608
1543.1179,0.170605
1544.9815,0.168369
1546.8452,0.164991
1548.7089,0.162295
1550.5725,0.159203
1552.4362,0.155519
1554.2999,0.151322
1556.1635,0.147681
1558.0272,0.149564
1559.8909,0.148608
1561.7546,0.141446
1563.6182,0.136901
1565.4819,0.133331
1567.3456,0.130852
1569.2092,0.129681
1571.0729,0.126596
1572.9366,0.123493
1574.8002,0.123390
1576.6639,0.123796
1578.5276,0.121235
1580.3912,0.119419
1582.2549,0.118946
1584.1186,0.119141
1585.9822,0.119407
1587.8459,0.120114
1589.7096,0.121444
1591.5733,0.123290
1593.4369,0.125687
1595.3006,0.128340
1597.1643,0.130965
1599.0279,0.133652
1600.8916,0.136894
1602.7553,0.140781
1604.6189,0.144963
1606.4826,0.149401
1608.3463,0.154502
1610.2099,0.159166
1612.0736,0.162542
1613.9373,0.165975
1615.8010,0.172349
1617.6646,0.178095
1619.5283,0.179545
1621.3920,0.182023
1623.2556,0.186632
1625.1193,0.189007
1626.9830,0.190810
1628.8466,0.191926
1630.7103,0.190787
1632.5740,0.189641
1634.4376,0.191466
1636.3013,0.192638
1638.1650,0.189412
1640.0286,0.185894
1641.8923,0.182407
1643.7560,0.179071
1645.6197,0.177386
1647.4833,0.174467
1649.3470,0.168935
1651.2107,0.165850
1653.0743,0.165083
1654.9380,0.159120
1656.8017,0.153151
1658.6653,0.147957
1660.5290,0.143523
1662.3927,0.138961
1664.2563,0.133139
1666.1200,0.127859
1667.9837,0.123618
1669.8474,0.118823
1671.7110,0.113493
1673.5747,0.108902
1675.4384,0.103889
1677.3020,0.098267
1679.1657,0.093351
1681.0294,0.088152
1682.8930,0.084357
1684.7567,0.078010
1686.6204,0.071604
1688.4840,0.066604
1690.3477,0.060865
1692.2114,0.055465
1694.0750,0.051154
1695.9387,0.045788
1697.8024,0.040795
1699.6661,0.037003
1701.5297,0.031536
1703.3934,0.029048
1705.2571,0.026440
1707.1207,0.023558
1708.9844,0.021560
1710.8481,0.019931
1712.7117,0.018960
1714.5754,0.018162
1716.4391,0.016860
1718.3027,0.015040
1720.1664,0.013754
1722.0301,0.013398
1723.8937,0.012657
1725.7574,0.011910
1727.6211,0.011221
1729.4848,0.010775
1731.3484,0.010535
1733.2121,0.010278
1735.0758,0.008584
1736.9394,0.008207
1738.8031,0.008016
1740.6668,0.007306
1742.5304,0.007122
1744.3941,0.006863
1746.2578,0.006609
1748.1214,0.006381
1749.9851,0.005830
1751.8488,0.005034
1753.7125,0.004516
1755.5761,0.004459
1757.4398,0.004156
1759.3035,0.004186
1761.1671,0.003973
1763.0308,0.003609
1764.8945,0.003628
1766.7581,0.003758
1768.6218,0.003801
1770.4855,0.004020
1772.3491,0.003373
1774.2128,0.002839
1776.0765,0.002855
1777.9401,0.002866
1779.8038,0.002858
1781.6675,0.002586
1783.5312,0.002634
1785.3948,0.002522
1787.2585,0.002492
1789.1222,0.002810
1790.9858,0.002910
1792.8495,0.002333
1794.7132,0.002064
1796.5768,0.002016
1798.4405,0.002129
1800.3042,0.002277
1802.1678,0.002149
1804.0315,0.001988
1805.8952,0.001743
1807.7589,0.001689
1809.6225,0.001764
1811.4862,0.001712
1813.3499,0.001716
1815.2135,0.001774
1817.0772,0.001559
1818.9409,0.001315
1820.8045,0.001338
1822.6682,0.001837
1824.5319,0.002109
1826.3955,0.001774
1828.2592,0.001909
1830.1229,0.001781
1831.9865,0.001651
1833.8502,0.001869
1835.7139,0.001944
1837.5776,0.001708
1839.4412,0.001252
1841.3049,0.001354
1843.1686,0.001738
1845.0322,0.001733
1846.8959,0.001502
1848.7596,0.001284
1850.6232,0.001329
1852.4869,0.001207
1854.3506,0.000842
1856.2142,0.001037
1858.0779,0.001507
1859.9416,0.001834
1861.8052,0.001883
1863.6689,0.001820
1865.5326,0.001828
1867.3963,0.002376
1869.2599,0.002005
1871.1236,0.001372
1872.9873,0.001196
1874.8509,0.001085
1876.7146,0.001349
1878.5783,0.001642
1880.4419,0.001399
1882.3056,0.000948
1884.1693,0.000898
1886.0329,0.001438
1887.8966,0.001834
1889.7603,0.001861
1891.6240,0.001729
1893.4876,0.001898
1895.3513,0.001682
1897.2150,0.001256
1899.0786,0.001183
1900.9423,0.001573
1902.8060,0.001706
1904.6696,0.001970
1906.5333,0.002244
1908.3970,0.001992
1910.2606,0.001708
1912.1243,0.001727
1913.9880,0.001576
1915.8516,0.001600
1917.7153,0.001700
1919.5790,0.002215
1921.4427,0.001901
1923.3063,0.001539
1925.1700,0.001749
1927.0337,0.002227
1928.8973,0.002105
1930.7610,0.002085
1932.6247,0.002296
1934.4883,0.002540
1936.3520,0.002397
1938.2157,0.002394
1940.0793,0.002567
1941.9430,0.002448
1943.8067,0.002002
1945.6704,0.001902
1947.5340,0.001881
1949.3977,0.002041
1951.2614,0.002250
1953.1250,0.002689
1954.9887,0.002490
1956.8524,0.002453
1958.7160,0.002792
1960.5797,0.003177
1962.4434,0.002772
1964.3070,0.004217
1966.1707,0.004935
1968.0344,0.004199
1969.8980,0.003443
1971.7617,0.003788
1973.6254,0.004181
1975.4891,0.004199
1977.3527,0.003844
1979.2164,0.003472
1981.0801,0.003792
1982.9437,0.004514
1984.8074,0.005032
1986.6711,0.005442
1988.5347,0.004717
1990.3984,0.004350
1992.2621,0.004171
1994.1257,0.005392
1995.9894,0.005412
1997.8531,0.004157
1999.7167,0.003771
2001.5804,0.004263
2003.4441,0.004106
2005.3078,0.003840
2007.1714,0.004289
2009.0351,0.005260
2010.8988,0.005127
2012.7624,0.004893
2014.6261,0.004715
2016.4898,0.005369
2018.3534,0.005589
2020.2171,0.005410
2022.0808,0.004535
2023.9444,0.005406
2025.8081,0.006903
2027.6718,0.006753
2029.5355,0.006226
2031.3991,0.006336
2033.2628,0.006240
2035.1265,0.007099
2036.9901,0.008445
2038.8538,0.009079
2040.7175,0.007355
2042.5811,0.006574
2044.4448,0.006499
2046.3085,0.007338
2048.1721,0.009641
2050.0358,0.010522
2051.8995,0.009735
2053.7631,0.009270
2055.6268,0.009252
2057.4905,0.009430
2059.3542,0.009638
2061.2178,0.009598
2063.0815,0.009221
2064.9452,0.009154
2066.8088,0.009166
2068.6725,0.009180
2070.5362,0.009153
2072.3998,0.009233
2074.2635,0.008536
2076.1272,0.008312
2077.9908,0.008624
2079.8545,0.008355
2081.7182,0.007802
2083.5819,0.007459
2085.4455,0.007138
2087.3092,0.006827
2089.1729,0.006787
2091.0365,0.007416
2092.9002,0.007537
2094.7639,0.007157
2096.6275,0.006922
2098.4912,0.007342
2100.3549,0.007778
2102.2185,0.007970
2104.0822,0.007224
2105.9459,0.007163
2107.8095,0.007696
2109.6732,0.008167
2111.5369,0.008185
2113.4006,0.007440
2115.2642,0.006600
2117.1279,0.006783
2118.9916,0.007104
2120.8552,0.006795
2122.7189,0.006884
2124.5826,0.007377
2126.4462,0.007257
2128.3099,0.007076
2130.1736,0.006557
2132.0372,0.005883
2133.9009,0.005395
2135.7646,0.005434
2137.6282,0.006648
2139.4919,0.007686
2141.3556,0.006975
2143.2193,0.006302
2145.0829,0.006864
2146.9466,0.007471
2148.8103,0.006840
2150.6739,0.006777
2152.5376,0.006687
2154.4013,0.005918
2156.2649,0.006030
2158.1286,0.008010
2159.9923,0.008678
2161.8559,0.009127
2163.7196,0.009976
2165.5833,0.010230
2167.4470,0.009599
2169.3106,0.009658
2171.1743,0.008891
2173.0380,0.008240
2174.9016,0.008534
2176.7653,0.009485
2178.6290,0.010114
2180.4926,0.010443
2182.3563,0.009535
2184.2200,0.008572
2186.0836,0.008805
2187.9473,0.009319
2189.8110,0.009493
2191.6746,0.008823
2193.5383,0.007932
2195.4020,0.007696
2197.2657,0.008185
2199.1293,0.008917
2200.9930,0.008843
2202.8567,0.008065
2204.7203,0.007456
2206.5840,0.007986
2208.4477,0.008757
2210.3113,0.009023
2212.1750,0.008450
2214.0387,0.008287
2215.9023,0.008610
2217.7660,0.008896
2219.6297,0.008398
2221.4934,0.007970
2223.3570,0.008141
2225.2207,0.007705
2227.0844,0.007643
2228.9480,0.008355
2230.8117,0.008709
2232.6754,0.008203
2234.5390,0.007178
2236.4027,0.007674
2238.2664,0.008700
2240.1300,0.008970
2241.9937,0.008669
2243.8574,0.008084
2245.7210,0.007366
2247.5847,0.007528
2249.4484,0.007953
2251.3121,0.007508
2253.1757,0.006776
2255.0394,0.007147
2256.9031,0.007941
2258.7667,0.008354
2260.6304,0.007738
2262.4941,0.007720
2264.3577,0.007808
2266.2214,0.008168
2268.0851,0.008764
2269.9487,0.008797
2271.8124,0.008045
2273.6761,0.007813
2275.5397,0.008295
2277.4034,0.008558
2279.2671,0.008135
2281.1308,0.007933
2282.9944,0.007669
2284.8581,0.007487
2286.7218,0.007835
2288.5854,0.008072
2290.4491,0.007802
2292.3128,0.007573
2294.1764,0.007333
2296.0401,0.007232
2297.9038,0.006942
2299.7674,0.007310
2301.6311,0.007863
2303.4948,0.007627
2305.3585,0.007274
2307.2221,0.007030
2309.0858,0.006841
2310.9495,0.007319
2312.8131,0.007319
2314.6768,0.007324
2316.5405,0.007364
2318.4041,0.007153
2320.2678,0.007515
2322.1315,0.007739
2323.9951,0.007270
2325.8588,0.006869
2327.7225,0.007165
2329.5861,0.006999
2331.4498,0.006651
2333.3135,0.006556
2335.1772,0.006768
2337.0408,0.007138
2338.9045,0.007496
2340.7682,0.007444
2342.6318,0.006774
2344.4955,0.006196
2346.3592,0.006132
2348.2228,0.006096
2350.0865,0.005816
2351.9502,0.006398
2353.8138,0.007005
2355.6775,0.006297
2357.5412,0.006427
2359.4049,0.008193
2361.2685,0.007510
2363.1322,0.006496
2364.9959,0.006887
2366.8595,0.007357
2368.7232,0.007327
2370.5869,0.007311
2372.4505,0.006991
2374.3142,0.006972
2376.1779,0.006851
2378.0415,0.006737
2379.9052,0.006723
2381.7689,0.006476
2383.6325,0.006436
2385.4962,0.006327
2387.3599,0.006262
2389.2236,0.006474
2391.0872,0.006200
2392.9509,0.006095
2394.8146,0.006286
2396.6782,0.006222
2398.5419,0.006196
2400.4056,0.006383
2402.2692,0.006638
2404.1329,0.006737
2405.9966,0.006683
2407.8602,0.006960
2409.7239,0.006979
2411.5876,0.006912
2413.4512,0.006842
2415.3149,0.006808
2417.1786,0.006826
2419.0423,0.007069
2420.9059,0.007308
2422.7696,0.007422
2424.6333,0.007347
2426.4969,0.007210
2428.3606,0.007223
2430.2243,0.007290
2432.0879,0.007188
2433.9516,0.007105
2435.8153,0.007103
2437.6789,0.007379
2439.5426,0.007546
2441.4063,0.007369
2443.2700,0.007313
2445.1336,0.007424
2446.9973,0.007392
2448.8610,0.007956
2450.7246,0.008206
2452.5883,0.008258
2454.4520,0.008172
2456.3156,0.007767
2458.1793,0.007653
2460.0430,0.007774
2461.9066,0.007852
2463.7703,0.008080
2465.6340,0.007976
2467.4976,0.007832
2469.3613,0.007765
2471.2250,0.008011
2473.0887,0.008174
2474.9523,0.008006
2476.8160,0.007933
2478.6797,0.008110
2480.5433,0.008113
2482.4070,0.008050
2484.2707,0.007983
2486.1343,0.008425
2487.9980,0.008491
2489.8617,0.008345
2491.7253,0.008645
2493.5890,0.008877
2495.4527,0.008709
2497.3164,0.008545
2499.1800,0.008535
2501.0437,0.008661
2502.9074,0.008553
2504.7710,0.008430
2506.6347,0.008303
2508.4984,0.008233
2510.3620,0.008312
2512.2257,0.008731
2514.0894,0.009161
2515.9530,0.009097
2517.8167,0.008543
2519.6804,0.008567
2521.5440,0.009195
2523.4077,0.009479
2525.2714,0.009024
2527.1351,0.009101
2528.9987,0.009724
2530.8624,0.009697
2532.7261,0.009275
2534.5897,0.009049
2536.4534,0.009126
2538.3171,0.009223
2540.1807,0.009218
2542.0444,0.009397
2543.9081,0.009345
2545.7717,0.009414
2547.6354,0.009449
2549.4991,0.009381
2551.3627,0.009622
2553.2264,0.009985
2555.0901,0.009827
2556.9538,0.009499
2558.8174,0.009605
2560.6811,0.010182
2562.5448,0.010171
2564.4084,0.009926
2566.2721,0.010387
2568.1358,0.010802
2569.9994,0.010653
2571.8631,0.010360
2573.7268,0.010279
2575.5904,0.010512
2577.4541,0.010744
2579.3178,0.010904
2581.1815,0.010879
2583.0451,0.011091
2584.9088,0.010945
2586.7725,0.010796
2588.6361,0.011107
2590.4998,0.011599
2592.3635,0.011604
2594.2271,0.011509
2596.0908,0.011687
2597.9545,0.011817
2599.8181,0.011704
2601.6818,0.011742
2603.5455,0.011908
2605.4091,0.012342
2607.2728,0.012534
2609.1365,0.012581
2611.0002,0.012614
2612.8638,0.012556
2614.7275,0.012674
2616.5912,0.012984
2618.4548,0.013005
2620.3185,0.013151
2622.1822,0.013497
2624.0458,0.013520
2625.9095,0.013425
2627.7732,0.013641
2629.6368,0.013687
2631.5005,0.013784
2633.3642,0.013884
2635.2279,0.014158
2637.0915,0.014406
2638.9552,0.014645
2640.8189,0.014664
2642.6825,0.014663
2644.5462,0.014752
2646.4099,0.014744
2648.2735,0.014778
2650.1372,0.014962
2652.0009,0.015163
2653.8645,0.015406
2655.7282,0.015287
2657.5919,0.015204
2659.4555,0.015286
2661.3192,0.015348
2663.1829,0.015356
2665.0466,0.015486
2666.9102,0.015735
2668.7739,0.015863
2670.6376,0.015871
2672.5012,0.016170
2674.3649,0.016393
2676.2286,0.016348
2678.0922,0.016303
2679.9559,0.016412
2681.8196,0.016640
2683.6832,0.016858
2685.5469,0.017031
2687.4106,0.017192
2689.2742,0.017166
2691.1379,0.017287
2693.0016,0.017617
2694.8653,0.017823
2696.7289,0.017874
2698.5926,0.018064
2700.4563,0.018317
2702.3199,0.018336
2704.1836,0.018186
2706.0473,0.018524
2707.9109,0.018993
2709.7746,0.019161
2711.6383,0.019178
2713.5019,0.019312
2715.3656,0.019459
2717.2293,0.019658
2719.0930,0.019858
2720.9566,0.020096
2722.8203,0.020276
2724.6840,0.020475
2726.5476,0.020733
2728.4113,0.021010
2730.2750,0.021191
2732.1386,0.021370
2734.0023,0.021644
2735.8660,0.021781
2737.7296,0.021838
2739.5933,0.022180
2741.4570,0.022438
2743.3206,0.022726
2745.1843,0.022916
2747.0480,0.022999
2748.9117,0.023193
2750.7753,0.023499
2752.6390,0.023705
2754.5027,0.023857
2756.3663,0.024069
2758.2300,0.024432
2760.0937,0.024673
2761.9573,0.024822
2763.8210,0.024995
2765.6847,0.025288
2767.5483,0.025566
2769.4120,0.025895
2771.2757,0.026288
2773.1394,0.026557
2775.0030,0.026573
2776.8667,0.026568
2778.7304,0.026812
2780.5940,0.027300
2782.4577,0.027741
2784.3214,0.028143
2786.1850,0.028289
2788.0487,0.028416
2789.9124,0.028687
2791.7760,0.028903
2793.6397,0.029280
2795.5034,0.029860
2797.3670,0.030074
2799.2307,0.030179
2801.0944,0.030541
2802.9581,0.030906
2804.8217,0.031061
2806.6854,0.031332
2808.5491,0.031669
2810.4127,0.031945
2812.2764,0.032129
2814.1401,0.032385
2816.0037,0.032763
2817.8674,0.033190
2819.7311,0.033439
2821.5947,0.033816
2823.4584,0.034268
2825.3221,0.034514
2827.1857,0.034820
2829.0494,0.035239
2830.9131,0.035574
2832.7768,0.036088
2834.6404,0.036540
2836.5041,0.036828
2838.3678,0.037005
2840.2314,0.037348
2842.0951,0.037992
2843.9588,0.038790
2845.8224,0.039574
2847.6861,0.040379
2849.5498,0.041000
2851.4134,0.041549
2853.2771,0.041980
2855.1408,0.042413
2857.0045,0.043073
2858.8681,0.043608
2860.7318,0.043880
2862.5955,0.044391
2864.4591,0.045241
2866.3228,0.046184
2868.1865,0.047012
2870.0501,0.047683
2871.9138,0.048196
2873.7775,0.048703
2875.6411,0.049012
2877.5048,0.048967
2879.3685,0.048979
2881.2321,0.049359
2883.0958,0.049461
2884.9595,0.049462
2886.8232,0.049467
2888.6868,0.049412
2890.5505,0.049791
2892.4142,0.050249
2894.2778,0.050352
2896.1415,0.050547
2898.0052,0.050851
2899.8688,0.051260
2901.7325,0.051867
2903.5962,0.052580
2905.4598,0.052919
2907.3235,0.053240
2909.1872,0.054079
2911.0509,0.055136
2912.9145,0.056003
2914.7782,0.056679
2916.6419,0.057597
2918.5055,0.058425
2920.3692,0.058802
2922.2329,0.059347
2924.0965,0.059998
2925.9602,0.060570
2927.8239,0.061028
2929.6875,0.061216
2931.5512,0.061290
2933.4149,0.061434
2935.2785,0.061375
2937.1422,0.061191
2939.0059,0.061163
2940.8696,0.061145
2942.7332,0.061146
2944.5969,0.060971
2946.4606,0.060871
2948.3242,0.061270
2950.1879,0.061546
2952.0516,0.061593
2953.9152,0.061695
2955.7789,0.061974
2957.6426,0.062369
2959.5062,0.062617
2961.3699,0.062540
2963.2336,0.062357
2965.0972,0.062157
2966.9609,0.061855
2968.8246,0.061584
2970.6883,0.061122
2972.5519,0.060521
2974.4156,0.060329
2976.2793,0.060425
2978.1429,0.060176
2980.0066,0.059499
2981.8703,0.058809
2983.7339,0.058477
2985.5976,0.058119
2987.4613,0.057606
2989.3249,0.057490
2991.1886,0.057615
2993.0523,0.057396
2994.9160,0.057091
2996.7796,0.057152
2998.6433,0.057460
3000.5070,0.057768
3002.3706,0.057849
3004.2343,0.058099
3006.0980,0.058446
3007.9616,0.058793
3009.8253,0.059352
3011.6890,0.059894
3013.5526,0.060364
3015.4163,0.060717
3017.2800,0.061164
3019.1436,0.061851
3021.0073,0.062747
3022.8710,0.063383
3024.7347,0.063812
3026.5983,0.064467
3028.4620,0.065008
3030.3257,0.065665
3032.1893,0.066603
3034.0530,0.067100
3035.9167,0.067375
3037.7803,0.068303
3039.6440,0.069101
3041.5077,0.069633
3043.3713,0.070363
3045.2350,0.070991
3047.0987,0.071556
3048.9624,0.071900
3050.8260,0.072299
3052.6897,0.072872
3054.5534,0.073890
3056.4170,0.074734
3058.2807,0.075198
3060.1444,0.075468
3062.0080,0.075979
3063.8717,0.076455
3065.7354,0.076729
3067.5990,0.077060
3069.4627,0.077427
3071.3264,0.077838
3073.1900,0.078383
3075.0537,0.078715
3076.9174,0.078726
3078.7811,0.078641
3080.6447,0.078899
3082.5084,0.079295
3084.3721,0.079339
3086.2357,0.079295
3088.0994,0.079360
3089.9631,0.079628
3091.8267,0.080030
3093.6904,0.080090
3095.5541,0.080017
3097.4177,0.080284
3099.2814,0.080819
3101.1451,0.080855
3103.0087,0.080748
3104.8724,0.081093
3106.7361,0.081732
3108.5998,0.082269
3110.4634,0.082581
3112.3271,0.082707
3114.1908,0.083386
3116.0544,0.084249
3117.9181,0.084495
3119.7818,0.084344
3121.6454,0.084544
3123.5091,0.085096
3125.3728,0.085871
3127.2364,0.086133
3129.1001,0.086421
3130.9638,0.087325
3132.8275,0.088585
3134.6911,0.089390
3136.5548,0.089871
3138.4185,0.090287
3140.2821,0.090664
3142.1458,0.091252
3144.0095,0.092568
3145.8731,0.093286
3147.7368,0.094111
3149.6005,0.095027
3151.4641,0.095570
3153.3278,0.096170
3155.1915,0.097054
3157.0551,0.097533
3158.9188,0.098369
3160.7825,0.099247
3162.6462,0.099935
3164.5098,0.100084
3166.3735,0.100562
3168.2372,0.101526
3170.1008,0.102684
3171.9645,0.103486
3173.8282,0.104215
3175.6918,0.104719
3177.5555,0.105447
3179.4192,0.106109
3181.2828,0.106801
3183.1465,0.107550
3185.0102,0.108348
3186.8739,0.108722
3188.7375,0.109200
3190.6012,0.109856
3192.4649,0.110524
3194.3285,0.110844
3196.1922,0.111608
3198.0559,0.112109
3199.9195,0.112355
3201.7832,0.112148
3203.6469,0.112262
3205.5105,0.112590
3207.3742,0.113205
3209.2379,0.113762
3211.1015,0.114223
3212.9652,0.114487
3214.8289,0.114732
3216.6926,0.114696
3218.5562,0.115043
3220.4199,0.115463
3222.2836,0.115838
3224.1472,0.115881
3226.0109,0.116219
3227.8746,0.116633
3229.7382,0.117042
3231.6019,0.116825
3233.4656,0.116995
3235.3292,0.116995
3237.1929,0.117484
3239.0566,0.118074
3240.9202,0.118455
3242.7839,0.118903
3244.6476,0.119652
3246.5113,0.119755
3248.3749,0.119959
3250.2386,0.119940
3252.1023,0.120497
3253.9659,0.121144
3255.8296,0.121900
3257.6933,0.121762
3259.5569,0.122275
3261.4206,0.123006
3263.2843,0.122985
3265.1479,0.122587
3267.0116,0.122268
3268.8753,0.122185
3270.7390,0.122587
3272.6026,0.122936
3274.4663,0.123408
3276.3300,0.122731
3278.1936,0.122314
3280.0573,0.122332
3281.9210,0.122242
3283.7846,0.121744
3285.6483,0.121683
3287.5120,0.121251
3289.3756,0.121301
3291.2393,0.120923
3293.1030,0.120179
3294.9666,0.119621
3296.8303,0.119182
3298.6940,0.118233
3300.5577,0.117991
3302.4213,0.118080
3304.2850,0.117931
3306.1487,0.116792
3308.0123,0.116172
3309.8760,0.115604
3311.7397,0.115010
3313.6033,0.114633
3315.4670,0.114392
3317.3307,0.114094
3319.1943,0.114003
3321.0580,0.113458
3322.9217,0.112788
3324.7854,0.112085
3326.6490,0.112151
3328.5127,0.111543
3330.3764,0.111575
3332.2400,0.110953
3334.1037,0.110773
3335.9674,0.110345
3337.8310,0.109832
3339.6947,0.109508
3341.5584,0.109703
3343.4220,0.109182
3345.2857,0.108833
3347.1494,0.108098
3349.0130,0.107829
3350.8767,0.107278
3352.7404,0.107222
3354.6041,0.107158
3356.4677,0.107234
3358.3314,0.106533
3360.1951,0.106185
3362.0587,0.105571
3363.9224,0.105229
3365.7861,0.104610
3367.6497,0.104382
3369.5134,0.103893
3371.3771,0.103287
3373.2407,0.103386
3375.1044,0.103530
3376.9681,0.102656
3378.8317,0.102714
3380.6954,0.102581
3382.5591,0.102016
3384.4228,0.100862
3386.2864,0.099995
3388.1501,0.099213
3390.0138,0.099379
3391.8774,0.098845
3393.7411,0.098279
3395.6048,0.098537
3397.4684,0.099249
3399.3321,0.098433
3401.1958,0.097286
3403.0594,0.096747
3404.9231,0.096812
3406.7868,0.096521
3408.6505,0.095795
3410.5141,0.094732
3412.3778,0.094542
3414.2415,0.093694
3416.1051,0.093165
3417.9688,0.092130
3419.8325,0.091501
3421.6961,0.091073
3423.5598,0.091084
3425.4235,0.090539
3427.2871,0.090025
3429.1508,0.088970
3431.0145,0.088543
3432.8781,0.088082
3434.7418,0.087351
3436.6055,0.086308
3438.4692,0.086402
3440.3328,0.085777
3442.1965,0.085411
3444.0602,0.084827
3445.9238,0.084376
3447.7875,0.083512
3449.6512,0.083311
3451.5148,0.082321
3453.3785,0.081565
3455.2422,0.081070
3457.1058,0.079807
3458.9695,0.078243
3460.8332,0.078253
3462.6969,0.078153
3464.5605,0.077885
3466.4242,0.076802
3468.2879,0.075990
3470.1515,0.074558
3472.0152,0.074041
3473.8789,0.073510
3475.7425,0.073309
3477.6062,0.072830
3479.4699,0.071395
3481.3335,0.070405
3483.1972,0.070729
3485.0609,0.069676
3486.9245,0.068581
3488.7882,0.067414
3490.6519,0.066552
3492.5156,0.065718
3494.3792,0.065080
3496.2429,0.064460
3498.1066,0.063934
3499.9702,0.062539
3501.8339,0.061359
3503.6976,0.060419
3505.5612,0.059999
3507.4249,0.059191
3509.2886,0.058670
3511.1522,0.058022
3513.0159,0.057436
3514.8796,0.056159
3516.7432,0.055803
3518.6069,0.054725
3520.4706,0.052977
3522.3343,0.052358
3524.1979,0.052584
3526.0616,0.051331
3527.9253,0.050543
3529.7889,0.049572
3531.6526,0.048782
3533.5163,0.047725
3535.3799,0.047020
3537.2436,0.046551
3539.1073,0.045455
3540.9709,0.044256
3542.8346,0.043491
3544.6983,0.042580
3546.5620,0.042455
3548.4256,0.041837
3550.2893,0.040645
3552.1530,0.039338
3554.0166,0.038386
3555.8803,0.037296
3557.7440,0.036116
3559.6076,0.035018
3561.4713,0.034978
3563.3350,0.034460
3565.1986,0.033889
3567.0623,0.033538
3568.9260,0.032133
3570.7896,0.030744
3572.6533,0.030328
3574.5170,0.029829
3576.3807,0.029328
3578.2443,0.028157
3580.1080,0.027185
3581.9717,0.026153
3583.8353,0.025414
3585.6990,0.025272
3587.5627,0.024898
3589.4263,0.023386
3591.2900,0.023038
3593.1537,0.022433
3595.0173,0.020955
3596.8810,0.020081
3598.7447,0.020139
3600.6084,0.019224
3602.4720,0.017666
3604.3357,0.017242
3606.1994,0.017128
3608.0630,0.015750
3609.9267,0.014518
3611.7904,0.014436
3613.6540,0.014446
3615.5177,0.013418
3617.3814,0.013022
3619.2450,0.012752
3621.1087,0.011513
3622.9724,0.010248
3624.8360,0.009633
3626.6997,0.009544
3628.5634,0.009152
3630.4271,0.007248
3632.2907,0.006041
3634.1544,0.006193
3636.0181,0.005812
3637.8817,0.004950
3639.7454,0.004310
3641.6091,0.003596
3643.4727,0.003388
3645.3364,0.002984
3647.2001,0.002826
3649.0637,0.001839
3650.9274,0.000276
3652.7911,-0.000225
3654.6547,0.000145
3656.5184,0.000058
3658.3821,-0.001119
3660.2458,-0.001898
3662.1094,-0.001925
3663.9731,-0.002491
3665.8368,-0.002883
3667.7004,-0.003074
3669.5641,-0.003553
3671.4278,-0.004434
3673.2914,-0.004647
3675.1551,-0.005340
3677.0188,-0.006941
3678.8824,-0.007324
3680.7461,-0.006729
3682.6098,-0.006523
3684.4735,-0.006108
3686.3371,-0.005942
3688.2008,-0.006129
3690.0645,-0.007126
3691.9281,-0.008005
3693.7918,-0.007519
3695.6555,-0.006996
3697.5191,-0.007547
3699.3828,-0.007726
3701.2465,-0.007650
3703.1101,-0.008247
3704.9738,-0.008550
3706.8375,-0.007854
3708.7011,-0.007372
3710.5648,-0.007769
3712.4285,-0.008606
3714.2922,-0.008396
3716.1558,-0.008161
3718.0195,-0.008143
3719.8832,-0.008087
3721.7468,-0.008053
3723.6105,-0.008364
3725.4742,-0.008846
3727.3378,-0.009086
3729.2015,-0.008580
3731.0652,-0.008078
3732.9288,-0.008086
3734.7925,-0.008693
3736.6562,-0.008988
3738.5199,-0.009007
3740.3835,-0.008670
3742.2472,-0.008287
3744.1109,-0.008728
3745.9745,-0.009306
3747.8382,-0.008777
3749.7019,-0.007862
3751.5655,-0.009222
3753.4292,-0.010285
3755.2929,-0.009765
3757.1565,-0.008977
3759.0202,-0.009034
3760.8839,-0.009272
3762.7475,-0.009055
3764.6112,-0.008623
3766.4749,-0.008525
3768.3386,-0.008849
3770.2022,-0.008984
3772.0659,-0.009344
3773.9296,-0.009362
3775.7932,-0.009141
3777.6569,-0.008882
3779.5206,-0.008787
3781.3842,-0.008978
3783.2479,-0.008982
3785.1116,-0.008951
3786.9752,-0.009003
3788.8389,-0.008800
3790.7026,-0.008986
3792.5662,-0.008995
3794.4299,-0.008694
3796.2936,-0.008644
3798.1573,-0.008585
3800.0209,-0.008338
3801.8846,-0.008680
3803.7483,-0.009785
3805.6119,-0.009637
3807.4756,-0.009243
3809.3393,-0.009390
3811.2029,-0.008901
3813.0666,-0.008655
3814.9303,-0.008753
3816.7939,-0.009175
3818.6576,-0.009591
3820.5213,-0.009105
3822.3850,-0.009328
3824.2486,-0.009780
3826.1123,-0.009245
3827.9760,-0.009007
3829.8396,-0.009119
3831.7033,-0.008847
3833.5670,-0.008645
3835.4306,-0.008350
3837.2943,-0.008602
3839.1580,-0.009315
3841.0216,-0.009451
3842.8853,-0.009420
3844.7490,-0.009552
3846.6126,-0.009714
3848.4763,-0.009130
3850.3400,-0.008368
3852.2037,-0.008064
3854.0673,-0.009280
3855.9310,-0.010654
3857.7947,-0.009635
3859.6583,-0.008823
3861.5220,-0.009113
3863.3857,-0.009054
3865.2493,-0.009018
3867.1130,-0.009159
3868.9767,-0.009022
3870.8403,-0.009101
3872.7040,-0.009406
3874.5677,-0.008823
3876.4314,-0.009155
3878.2950,-0.008856
3880.1587,-0.008698
3882.0224,-0.009379
3883.8860,-0.009523
3885.7497,-0.008851
3887.6134,-0.008981
3889.4770,-0.008812
3891.3407,-0.008401
3893.2044,-0.008783
3895.0680,-0.009191
3896.9317,-0.008682
3898.7954,-0.008332
3900.6590,-0.008600
3902.5227,-0.008744
3904.3864,-0.009073
3906.2501,-0.009453
3908.1137,-0.009062
3909.9774,-0.009063
3911.8411,-0.008817
3913.7047,-0.008531
3915.5684,-0.008650
3917.4321,-0.008741
3919.2957,-0.008679
3921.1594,-0.008630
3923.0231,-0.008490
3924.8867,-0.008590
3926.7504,-0.008789
3928.6141,-0.008617
3930.4777,-0.008223
3932.3414,-0.008245
3934.2051,-0.008614
3936.0688,-0.008943
3937.9324,-0.008718
3939.7961,-0.008750
3941.6598,-0.008758
3943.5234,-0.009018
3945.3871,-0.009192
3947.2508,-0.008913
3949.1144,-0.008552
3950.9781,-0.008338
3952.8418,-0.008218
3954.7054,-0.008545
3956.5691,-0.008465
3958.4328,-0.008433
3960.2965,-0.008597
3962.1601,-0.008657
3964.0238,-0.008585
3965.8875,-0.008720
3967.7511,-0.008805
3969.6148,-0.008619
3971.4785,-0.008050
3973.3421,-0.008189
3975.2058,-0.008645
3977.0695,-0.009002
3978.9331,-0.009012
3980.7968,-0.008730
3982.6605,-0.008652
3984.5241,-0.009061
3986.3878,-0.009055
3988.2515,-0.008512
3990.1152,-0.007841
3991.9788,-0.008121
3993.8425,-0.008644
3995.7062,-0.008746
3997.5698,-0.008638
3999.4335,-0.008874
