Wavenumber,Intensity
650.4205,0.031967
652.2841,0.031706
654.1478,0.034321
656.0115,0.034589
657.8751,0.034903
659.7388,0.033616
661.6025,0.033008
663.4661,0.033210
665.3298,0.031176
667.1935,0.027741
669.0571,0.031004
670.9208,0.033820
672.7845,0.033604
674.6481,0.033387
676.5118,0.031817
678.3755,0.030794
680.2392,0.030905
682.1028,0.030384
683.9665,0.030283
685.8302,0.030151
687.6938,0.030468
689.5575,0.030482
691.4212,0.029905
693.2848,0.029667
695.1485,0.030289
697.0122,0.030001
698.8758,0.028976
700.7395,0.028488
702.6032,0.028994
704.4669,0.028742
706.3305,0.027855
708.1942,0.026929
710.0579,0.026790
711.9215,0.026464
713.7852,0.026465
715.6489,0.026174
717.5125,0.025791
719.3762,0.025528
721.2399,0.025577
723.1035,0.024940
724.9672,0.024454
726.8309,0.024612
728.6945,0.024273
730.5582,0.023573
732.4219,0.023240
734.2856,0.023320
736.1492,0.022889
738.0129,0.023116
739.8766,0.023643
741.7402,0.023168
743.6039,0.022814
745.4676,0.022969
747.3312,0.022476
749.1949,0.021783
751.0586,0.021945
752.9222,0.022243
754.7859,0.022144
756.6496,0.021583
758.5132,0.021331
760.3769,0.021378
762.2406,0.021398
764.1043,0.021175
765.9679,0.021001
767.8316,0.021172
769.6953,0.021074
771.5589,0.020618
773.4226,0.020301
775.2863,0.020333
777.1499,0.020687
779.0136,0.020629
780.8773,0.020399
782.7409,0.020306
784.6046,0.020373
786.4683,0.020190
788.3320,0.019648
790.1956,0.019290
792.0593,0.019457
793.9230,0.019861
795.7866,0.019883
797.6503,0.019490
799.5140,0.019282
801.3776,0.019541
803.2413,0.019849
805.1050,0.019852
806.9686,0.019547
808.8323,0.019250
810.6960,0.018967
812.5596,0.019003
814.4233,0.019236
816.2870,0.019091
818.1507,0.019153
820.0143,0.019031
821.8780,0.018509
823.7417,0.018202
825.6053,0.018060
827.4690,0.017988
829.3327,0.017809
831.1963,0.017722
833.0600,0.017881
834.9237,0.017815
836.7873,0.017393
838.6510,0.016921
840.5147,0.016822
842.3784,0.016940
844.2420,0.016690
846.1057,0.016438
847.9694,0.016476
849.8330,0.016345
851.6967,0.016062
853.5604,0.015925
855.4240,0.015953
857.2877,0.016002
859.1514,0.015945
861.0150,0.015990
862.8787,0.015966
864.7424,0.015973
866.6060,0.016097
868.4697,0.016146
870.3334,0.016203
872.1971,0.016134
874.0607,0.015943
875.9244,0.015567
877.7881,0.015395
879.6517,0.015622
881.5154,0.015599
883.3791,0.015456
885.2427,0.015347
887.1064,0.015265
888.9701,0.015323
890.8337,0.015353
892.6974,0.015284
894.5611,0.015194
896.4247,0.015263
898.2884,0.015179
900.1521,0.015092
902.0158,0.015220
903.8794,0.015297
905.7431,0.015168
907.6068,0.015150
909.4704,0.015299
911.3341,0.015511
913.1978,0.015687
915.0614,0.015770
916.9251,0.015844
918.7888,0.015973
920.6524,0.016084
922.5161,0.016110
924.3798,0.016032
926.2435,0.015962
928.1071,0.015978
929.9708,0.016075
931.8345,0.016230
933.6981,0.016281
935.5618,0.016294
937.4255,0.016316
939.2891,0.016588
941.1528,0.016829
943.0165,0.016813
944.8801,0.016963
946.7438,0.017295
948.6075,0.017527
950.4711,0.017767
952.3348,0.018015
954.1985,0.018282
956.0622,0.018632
957.9258,0.018956
959.7895,0.019265
961.6532,0.019656
963.5168,0.019971
965.3805,0.020224
967.2442,0.020362
969.1078,0.020415
970.9715,0.020472
972.8352,0.020564
974.6988,0.020708
976.5625,0.020732
978.4262,0.020827
980.2899,0.021106
982.1535,0.021436
984.0172,0.021670
985.8809,0.021880
987.7445,0.022193
989.6082,0.022622
991.4719,0.023098
993.3355,0.023408
995.1992,0.023705
997.0629,0.024131
998.9265,0.024668
1000.7902,0.025071
1002.6539,0.025409
1004.5175,0.025838
1006.3812,0.026341
1008.2449,0.026861
1010.1086,0.027442
1011.9722,0.028032
1013.8359,0.028659
1015.6996,0.029231
1017.5632,0.029634
1019.4269,0.030116
1021.2906,0.030609
1023.1542,0.030887
1025.0179,0.031191
1026.8816,0.031475
1028.7452,0.031645
1030.6089,0.031896
1032.4726,0.032180
1034.3362,0.032324
1036.1999,0.032439
1038.0636,0.032574
1039.9273,0.032729
1041.7909,0.032831
1043.6546,0.032801
1045.5183,0.032786
1047.3819,0.032764
1049.2456,0.032783
1051.1093,0.032849
1052.9729,0.032898
1054.8366,0.032967
1056.7003,0.032963
1058.5639,0.032796
1060.4276,0.032652
1062.2913,0.032667
1064.1550,0.032746
1066.0186,0.032704
1067.8823,0.032690
1069.7460,0.032603
1071.6096,0.032240
1073.4733,0.031938
1075.3370,0.031718
1077.2006,0.031319
1079.0643,0.030822
1080.9280,0.030221
1082.7916,0.029604
1084.6553,0.028975
1086.5190,0.028242
1088.3826,0.027557
1090.2463,0.027012
1092.1100,0.026542
1093.9737,0.026075
1095.8373,0.025658
1097.7010,0.025305
1099.5647,0.024885
1101.4283,0.024513
1103.2920,0.024260
1105.1557,0.023978
1107.0193,0.023753
1108.8830,0.023472
1110.7467,0.023182
1112.6103,0.023083
1114.4740,0.022994
1116.3377,0.022717
1118.2014,0.022427
1120.0650,0.022185
1121.9287,0.021971
1123.7924,0.021750
1125.6560,0.021443
1127.5197,0.021104
1129.3834,0.020823
1131.2470,0.020526
1133.1107,0.020124
1134.9744,0.019726
1136.8380,0.019384
1138.7017,0.019112
1140.5654,0.018950
1142.4290,0.018784
1144.2927,0.018608
1146.1564,0.018560
1148.0201,0.018554
1149.8837,0.018512
1151.7474,0.018481
1153.6111,0.018520
1155.4747,0.018386
1157.3384,0.018196
1159.2021,0.018117
1161.0657,0.017998
1162.9294,0.017798
1164.7931,0.017556
1166.6567,0.017367
1168.5204,0.017099
1170.3841,0.016737
1172.2477,0.016323
1174.1114,0.015777
1175.9751,0.015259
1177.8388,0.014923
1179.7024,0.014670
1181.5661,0.014478
1183.4298,0.014393
1185.2934,0.014432
1187.1571,0.014544
1189.0208,0.014666
1190.8844,0.014872
1192.7481,0.015134
1194.6118,0.015485
1196.4754,0.015877
1198.3391,0.016288
1200.2028,0.016682
1202.0665,0.016972
1203.9301,0.017310
1205.7938,0.017723
1207.6575,0.018050
1209.5211,0.018403
1211.3848,0.018778
1213.2485,0.019098
1215.1121,0.019483
1216.9758,0.019859
1218.8395,0.020174
1220.7031,0.020538
1222.5668,0.020829
1224.4305,0.021057
1226.2941,0.021298
1228.1578,0.021394
1230.0215,0.021441
1231.8852,0.021498
1233.7488,0.021487
1235.6125,0.021478
1237.4762,0.021414
1239.3398,0.021169
1241.2035,0.021015
1243.0672,0.020915
1244.9308,0.020704
1246.7945,0.020422
1248.6582,0.020146
1250.5218,0.019947
1252.3855,0.019729
1254.2492,0.019559
1256.1129,0.019373
1257.9765,0.019197
1259.8402,0.018965
1261.7039,0.018791
1263.5675,0.018651
1265.4312,0.018501
1267.2949,0.018356
1269.1585,0.018238
1271.0222,0.018196
1272.8859,0.018239
1274.7495,0.018257
1276.6132,0.018228
1278.4769,0.018151
1280.3405,0.018136
1282.2042,0.018175
1284.0679,0.018273
1285.9316,0.018201
1287.7952,0.018108
1289.6589,0.018170
1291.5226,0.018227
1293.3862,0.018330
1295.2499,0.018487
1297.1136,0.018611
1298.9772,0.018567
1300.8409,0.018514
1302.7046,0.018525
1304.5682,0.018528
1306.4319,0.018615
1308.2956,0.018540
1310.1592,0.018397
1312.0229,0.018419
1313.8866,0.018422
1315.7503,0.018299
1317.6139,0.018231
1319.4776,0.018053
1321.3413,0.017741
1323.2049,0.017520
1325.0686,0.017455
1326.9323,0.017387
1328.7959,0.017333
1330.6596,0.017315
1332.5233,0.017379
1334.3869,0.017324
1336.2506,0.017210
1338.1143,0.017297
1339.9780,0.017523
1341.8416,0.017745
1343.7053,0.017832
1345.5690,0.017660
1347.4326,0.017571
1349.2963,0.017715
1351.1600,0.017837
1353.0236,0.017936
1354.8873,0.018121
1356.7510,0.018323
1358.6146,0.018530
1360.4783,0.018839
1362.3420,0.019495
1364.2056,0.020104
1366.0693,0.020402
1367.9330,0.020739
1369.7967,0.021118
1371.6603,0.021335
1373.5240,0.021681
1375.3877,0.022251
1377.2513,0.022415
1379.1150,0.022511
1380.9787,0.022716
1382.8423,0.022778
1384.7060,0.022754
1386.5697,0.022937
1388.4333,0.023182
1390.2970,0.022888
1392.1607,0.022403
1394.0244,0.022280
1395.8880,0.022387
1397.7517,0.022242
1399.6154,0.022162
1401.4790,0.021795
1403.3427,0.021229
1405.2064,0.020858
1407.0700,0.020574
1408.9337,0.020211
1410.7974,0.019882
1412.6610,0.019555
1414.5247,0.019177
1416.3884,0.018853
1418.2520,0.018918
1420.1157,0.019338
1421.9794,0.019257
1423.8431,0.019237
1425.7067,0.019363
1427.5704,0.019394
1429.4341,0.019647
1431.2977,0.019990
1433.1614,0.020106
1435.0251,0.020387
1436.8887,0.021325
1438.7524,0.021530
1440.6161,0.021231
1442.4797,0.021121
1444.3434,0.021025
1446.2071,0.020934
1448.0707,0.021069
1449.9344,0.020996
1451.7981,0.020636
1453.6618,0.020112
1455.5254,0.019871
1457.3891,0.020763
1459.2528,0.020603
1461.1164,0.019787
1462.9801,0.019395
1464.8438,0.019631
1466.7074,0.019539
1468.5711,0.018835
1470.4348,0.018285
1472.2984,0.018475
1474.1621,0.018678
1476.0258,0.018759
1477.8895,0.018845
1479.7531,0.018956
1481.6168,0.019483
1483.4805,0.019971
1485.3441,0.020413
1487.2078,0.021472
1489.0715,0.023251
1490.9351,0.024869
1492.7988,0.025018
1494.6625,0.025199
1496.5261,0.026721
1498.3898,0.028282
1500.2535,0.028827
1502.1171,0.028500
1503.9808,0.027885
1505.8445,0.029022
1507.7082,0.032890
1509.5718,0.033173
1511.4355,0.032634
1513.2992,0.032424
1515.1628,0.032169
1517.0265,0.032396
1518.8902,0.031989
1520.7538,0.031934
1522.6175,0.032921
1524.4812,0.032737
1526.3448,0.032936
1528.2085,0.033042
1530.0722,0.032224
1531.9359,0.031509
1533.7995,0.031954
1535.6632,0.031433
1537.5269,0.029947
1539.3905,0.029713
1541.2542,0.030961
1543.1179,0.030635
1544.9815,0.030062
1546.8452,0.029009
1548.7089,0.027978
1550.5725,0.027050
1552.4362,0.025821
1554.2999,0.024712
1556.1635,0.023544
1558.0272,0.022867
1559.8909,0.023829
1561.7546,0.023018
1563.6182,0.021877
1565.4819,0.021178
1567.3456,0.020585
1569.2092,0.020496
1571.0729,0.020291
1572.9366,0.019522
1574.8002,0.019206
1576.6639,0.019695
1578.5276,0.019541
1580.3912,0.018875
1582.2549,0.018689
1584.1186,0.018777
1585.9822,0.018849
1587.8459,0.018878
1589.7096,0.019060
1591.5733,0.019351
1593.4369,0.019630
1595.3006,0.019974
1597.1643,0.020259
1599.0279,0.020538
1600.8916,0.020958
1602.7553,0.021588
1604.6189,0.022274
1606.4826,0.022969
1608.3463,0.023849
1610.2099,0.024734
1612.0736,0.025466
1613.9373,0.025977
1615.8010,0.027393
1617.6646,0.029514
1619.5283,0.029829
1621.3920,0.030014
1623.2556,0.031515
1625.1193,0.032986
1626.9830,0.033470
1628.8466,0.034069
1630.7103,0.034326
1632.5740,0.033889
1634.4376,0.033908
1636.3013,0.035280
1638.1650,0.035688
1640.0286,0.034908
1641.8923,0.034007
1643.7560,0.032998
1645.6197,0.032414
1647.4833,0.032497
1649.3470,0.031569
1651.2107,0.029893
1653.0743,0.029469
1654.9380,0.029847
1656.8017,0.028701
1658.6653,0.027372
1660.5290,0.026162
1662.3927,0.025093
1664.2563,0.024170
1666.1200,0.023050
1667.9837,0.021758
1669.8474,0.020777
1671.7110,0.020129
1673.5747,0.019211
1675.4384,0.018371
1677.3020,0.017606
1679.1657,0.016590
1681.0294,0.015264
1682.8930,0.014011
1684.7567,0.013199
1686.6204,0.012779
1688.4840,0.012009
1690.3477,0.010898
1692.2114,0.009707
1694.0750,0.008499
1695.9387,0.007175
1697.8024,0.006121
1699.6661,0.004778
1701.5297,0.003729
1703.3934,0.003307
1705.2571,0.002355
1707.1207,0.001492
1708.9844,0.001224
1710.8481,0.001001
1712.7117,0.000773
1714.5754,0.000416
1716.4391,-0.000187
1718.3027,-0.000762
1720.1664,-0.000708
1722.0301,-0.000624
1723.8937,-0.000710
1725.7574,-0.000709
1727.6211,-0.000630
1729.4848,-0.000623
1731.3484,-0.000719
1733.2121,-0.001361
1735.0758,-0.001465
1736.9394,-0.000673
1738.8031,-0.000813
1740.6668,-0.001122
1742.5304,-0.000797
1744.3941,-0.000780
1746.2578,-0.000961
1748.1214,-0.001243
1749.9851,-0.001666
1751.8488,-0.001958
1753.7125,-0.001868
1755.5761,-0.001856
1757.4398,-0.001996
1759.3035,-0.002054
1761.1671,-0.002226
1763.0308,-0.002418
1764.8945,-0.002223
1766.7581,-0.002118
1768.6218,-0.002094
1770.4855,-0.002178
1772.3491,-0.002452
1774.2128,-0.002349
1776.0765,-0.002211
1777.9401,-0.002137
1779.8038,-0.002302
1781.6675,-0.002454
1783.5312,-0.002487
1785.3948,-0.002544
1787.2585,-0.002322
1789.1222,-0.002072
1790.9858,-0.002235
1792.8495,-0.002694
1794.7132,-0.002569
1796.5768,-0.002408
1798.4405,-0.002497
1800.3042,-0.002654
1802.1678,-0.002663
1804.0315,-0.002598
1805.8952,-0.002457
1807.7589,-0.002391
1809.6225,-0.002443
1811.4862,-0.002505
1813.3499,-0.002409
1815.2135,-0.002455
1817.0772,-0.002689
1818.9409,-0.002652
1820.8045,-0.002479
1822.6682,-0.002610
1824.5319,-0.002798
1826.3955,-0.002496
1828.2592,-0.002163
1830.1229,-0.002422
1831.9865,-0.002511
1833.8502,-0.002336
1835.7139,-0.002245
1837.5776,-0.002183
1839.4412,-0.002183
1841.3049,-0.002288
1843.1686,-0.002512
1845.0322,-0.002864
1846.8959,-0.002801
1848.7596,-0.002541
1850.6232,-0.002396
1852.4869,-0.002416
1854.3506,-0.002345
1856.2142,-0.002364
1858.0779,-0.002511
1859.9416,-0.002611
1861.8052,-0.002740
1863.6689,-0.002761
1865.5326,-0.002519
1867.3963,-0.002852
1869.2599,-0.003389
1871.1236,-0.002929
1872.9873,-0.002328
1874.8509,-0.002237
1876.7146,-0.002400
1878.5783,-0.002231
1880.4419,-0.002338
1882.3056,-0.002829
1884.1693,-0.002937
1886.0329,-0.002755
1887.8966,-0.002728
1889.7603,-0.002827
1891.6240,-0.002633
1893.4876,-0.002570
1895.3513,-0.002734
1897.2150,-0.002616
1899.0786,-0.002391
1900.9423,-0.002454
1902.8060,-0.002382
1904.6696,-0.002360
1906.5333,-0.002614
1908.3970,-0.002842
1910.2606,-0.002591
1912.1243,-0.002327
1913.9880,-0.002747
1915.8516,-0.003154
1917.7153,-0.002862
1919.5790,-0.002428
1921.4427,-0.002443
1923.3063,-0.002408
1925.1700,-0.002395
1927.0337,-0.002665
1928.8973,-0.002592
1930.7610,-0.002620
1932.6247,-0.003205
1934.4883,-0.003111
1936.3520,-0.002728
1938.2157,-0.002976
1940.0793,-0.003658
1941.9430,-0.003876
1943.8067,-0.003248
1945.6704,-0.002787
1947.5340,-0.002776
1949.3977,-0.002932
1951.2614,-0.003035
1953.1250,-0.003441
1954.9887,-0.003829
1956.8524,-0.003523
1958.7160,-0.003500
1960.5797,-0.004528
1962.4434,-0.004669
1964.3070,-0.003506
1966.1707,-0.002125
1968.0344,-0.001717
1969.8980,-0.002334
1971.7617,-0.003304
1973.6254,-0.003540
1975.4891,-0.002915
1977.3527,-0.002721
1979.2164,-0.002551
1981.0801,-0.002641
1982.9437,-0.002325
1984.8074,-0.001971
1986.6711,-0.003174
1988.5347,-0.003579
1990.3984,-0.002600
1992.2621,-0.001821
1994.1257,-0.002669
1995.9894,-0.004267
1997.8531,-0.004128
1999.7167,-0.003165
2001.5804,-0.003781
2003.4441,-0.003879
2005.3078,-0.003806
2007.1714,-0.004353
2009.0351,-0.004238
2010.8988,-0.004245
2012.7624,-0.005126
2014.6261,-0.004820
2016.4898,-0.005069
2018.3534,-0.006390
2020.2171,-0.005507
2022.0808,-0.003569
2023.9444,-0.002987
2025.8081,-0.003085
2027.6718,-0.002732
2029.5355,-0.003261
2031.3991,-0.004155
2033.2628,-0.003392
2035.1265,-0.002949
2036.9901,-0.003544
2038.8538,-0.003639
2040.7175,-0.002709
2042.5811,-0.001989
2044.4448,-0.001561
2046.3085,-0.001610
2048.1721,-0.002590
2050.0358,-0.002147
2051.8995,-0.001414
2053.7631,-0.002424
2055.6268,-0.002140
2057.4905,-0.001281
2059.3542,-0.001396
2061.2178,-0.001600
2063.0815,-0.002096
2064.9452,-0.002567
2066.8088,-0.002867
2068.6725,-0.002527
2070.5362,-0.001564
2072.3998,-0.001013
2074.2635,-0.001345
2076.1272,-0.001959
2077.9908,-0.002080
2079.8545,-0.001834
2081.7182,-0.001811
2083.5819,-0.001678
2085.4455,-0.001623
2087.3092,-0.002069
2089.1729,-0.002104
2091.0365,-0.002183
2092.9002,-0.002071
2094.7639,-0.002305
2096.6275,-0.002563
2098.4912,-0.002091
2100.3549,-0.001992
2102.2185,-0.002034
2104.0822,-0.001874
2105.9459,-0.001815
2107.8095,-0.001531
2109.6732,-0.001380
2111.5369,-0.001655
2113.4006,-0.001850
2115.2642,-0.001638
2117.1279,-0.001672
2118.9916,-0.002180
2120.8552,-0.002790
2122.7189,-0.002871
2124.5826,-0.002610
2126.4462,-0.002435
2128.3099,-0.002556
2130.1736,-0.003134
2132.0372,-0.003300
2133.9009,-0.003123
2135.7646,-0.003487
2137.6282,-0.003855
2139.4919,-0.003372
2141.3556,-0.003464
2143.2193,-0.003441
2145.0829,-0.002262
2146.9466,-0.002010
2148.8103,-0.002607
2150.6739,-0.003327
2152.5376,-0.004082
2154.4013,-0.005012
2156.2649,-0.005690
2158.1286,-0.004738
2159.9923,-0.002731
2161.8559,-0.001506
2163.7196,-0.000768
2165.5833,-0.000788
2167.4470,-0.002208
2169.3106,-0.003682
2171.1743,-0.003335
2173.0380,-0.003141
2174.9016,-0.003493
2176.7653,-0.003039
2178.6290,-0.003369
2180.4926,-0.003183
2182.3563,-0.002417
2184.2200,-0.002125
2186.0836,-0.001835
2187.9473,-0.001620
2189.8110,-0.001367
2191.6746,-0.002145
2193.5383,-0.003103
2195.4020,-0.002897
2197.2657,-0.001611
2199.1293,-0.001189
2200.9930,-0.002191
2202.8567,-0.002182
2204.7203,-0.001738
2206.5840,-0.002012
2208.4477,-0.002033
2210.3113,-0.001543
2212.1750,-0.001461
2214.0387,-0.002279
2215.9023,-0.002710
2217.7660,-0.002146
2219.6297,-0.001477
2221.4934,-0.000928
2223.3570,-0.000784
2225.2207,-0.001191
2227.0844,-0.001939
2228.9480,-0.002174
2230.8117,-0.001096
2232.6754,-0.000208
2234.5390,-0.000224
2236.4027,-0.000741
2238.2664,-0.001651
2240.1300,-0.001954
2241.9937,-0.001583
2243.8574,-0.001055
2245.7210,-0.001356
2247.5847,-0.001958
2249.4484,-0.001764
2251.3121,-0.001698
2253.1757,-0.001526
2255.0394,-0.001010
2256.9031,-0.001169
2258.7667,-0.001584
2260.6304,-0.001569
2262.4941,-0.001305
2264.3577,-0.000885
2266.2214,-0.000482
2268.0851,-0.000446
2269.9487,-0.000612
2271.8124,-0.000625
2273.6761,-0.000770
2275.5397,-0.000989
2277.4034,-0.000995
2279.2671,-0.000765
2281.1308,-0.000448
2282.9944,-0.000231
2284.8581,-0.000099
2286.7218,-0.000154
2288.5854,-0.000461
2290.4491,-0.000389
2292.3128,-0.000228
2294.1764,-0.000399
2296.0401,-0.000377
2297.9038,-0.000268
2299.7674,-0.000441
2301.6311,-0.000769
2303.4948,-0.000845
2305.3585,-0.000553
2307.2221,-0.000396
2309.0858,-0.000545
2310.9495,-0.000625
2312.8131,-0.000656
2314.6768,-0.000566
2316.5405,-0.000481
2318.4041,-0.000724
2320.2678,-0.000590
2322.1315,-0.000091
2323.9951,-0.000266
2325.8588,-0.000838
2327.7225,-0.001013
2329.5861,-0.001308
2331.4498,-0.001569
2333.3135,-0.001565
2335.1772,-0.001543
2337.0408,-0.001567
2338.9045,-0.001238
2340.7682,-0.000949
2342.6318,-0.001008
2344.4955,-0.000972
2346.3592,-0.000927
2348.2228,-0.001072
2350.0865,-0.001402
2351.9502,-0.001777
2353.8138,-0.001864
2355.6775,-0.001997
2357.5412,-0.001948
2359.4049,-0.001247
2361.2685,-0.000603
2363.1322,-0.000710
2364.9959,-0.001637
2366.8595,-0.001563
2368.7232,-0.000663
2370.5869,-0.000420
2372.4505,-0.000736
2374.3142,-0.000850
2376.1779,-0.000548
2378.0415,-0.000374
2379.9052,-0.000542
2381.7689,-0.000665
2383.6325,-0.000587
2385.4962,-0.000488
2387.3599,-0.000339
2389.2236,-0.000346
2391.0872,-0.000665
2392.9509,-0.000733
2394.8146,-0.000608
2396.6782,-0.000676
2398.5419,-0.000707
2400.4056,-0.000664
2402.2692,-0.000656
2404.1329,-0.000715
2405.9966,-0.000594
2407.8602,-0.000140
2409.7239,0.000368
2411.5876,0.000271
2413.4512,-0.000064
2415.3149,-0.000231
2417.1786,-0.000512
2419.0423,-0.000643
2420.9059,-0.000505
2422.7696,-0.000279
2424.6333,-0.000306
2426.4969,-0.000414
2428.3606,-0.000313
2430.2243,-0.000164
2432.0879,-0.000141
2433.9516,0.000018
2435.8153,0.000171
2437.6789,0.000100
2439.5426,0.000050
2441.4063,-0.000073
2443.2700,-0.000176
2445.1336,-0.000214
2446.9973,0.000052
2448.8610,0.000437
2450.7246,0.000290
2452.5883,-0.000108
2454.4520,0.000062
2456.3156,0.000341
2458.1793,0.000062
2460.0430,-0.000164
2461.9066,0.000043
2463.7703,0.000277
2465.6340,0.000318
2467.4976,0.000296
2469.3613,0.000113
2471.2250,-0.000039
2473.0887,0.000123
2474.9523,0.000084
2476.8160,-0.000052
2478.6797,0.000019
2480.5433,0.000230
2482.4070,0.000452
2484.2707,0.000322
2486.1343,0.000205
2487.9980,0.000261
2489.8617,0.000256
2491.7253,0.000042
2493.5890,-0.000126
2495.4527,0.000087
2497.3164,0.000328
2499.1800,0.000448
2501.0437,0.000659
2502.9074,0.000560
2504.7710,0.000398
2506.6347,0.000372
2508.4984,0.000175
2510.3620,0.000233
2512.2257,0.000523
2514.0894,0.000597
2515.9530,0.000526
2517.8167,0.000607
2519.6804,0.000606
2521.5440,0.000416
2523.4077,0.000126
2525.2714,0.000129
2527.1351,0.000295
2528.9987,0.000515
2530.8624,0.000664
2532.7261,0.000541
2534.5897,0.000519
2536.4534,0.000785
2538.3171,0.000871
2540.1807,0.000588
2542.0444,0.000563
2543.9081,0.000686
2545.7717,0.000532
2547.6354,0.000803
2549.4991,0.001055
2551.3627,0.000842
2553.2264,0.000707
2555.0901,0.000662
2556.9538,0.000539
2558.8174,0.000623
2560.6811,0.000825
2562.5448,0.000766
2564.4084,0.000704
2566.2721,0.001110
2568.1358,0.001504
2569.9994,0.001376
2571.8631,0.001145
2573.7268,0.001073
2575.5904,0.001066
2577.4541,0.001261
2579.3178,0.001269
2581.1815,0.000979
2583.0451,0.000920
2584.9088,0.001148
2586.7725,0.001489
2588.6361,0.001617
2590.4998,0.001259
2592.3635,0.001023
2594.2271,0.001136
2596.0908,0.001219
2597.9545,0.001330
2599.8181,0.001510
2601.6818,0.001515
2603.5455,0.001381
2605.4091,0.001394
2607.2728,0.001584
2609.1365,0.001722
2611.0002,0.001578
2612.8638,0.001351
2614.7275,0.001495
2616.5912,0.001551
2618.4548,0.001598
2620.3185,0.001868
2622.1822,0.002017
2624.0458,0.001947
2625.9095,0.001772
2627.7732,0.001756
2629.6368,0.001866
2631.5005,0.001982
2633.3642,0.001991
2635.2279,0.001959
2637.0915,0.002049
2638.9552,0.001942
2640.8189,0.001927
2642.6825,0.002183
2644.5462,0.002262
2646.4099,0.002191
2648.2735,0.002073
2650.1372,0.002133
2652.0009,0.002165
2653.8645,0.002045
2655.7282,0.001958
2657.5919,0.001844
2659.4555,0.001889
2661.3192,0.001968
2663.1829,0.001908
2665.0466,0.001863
2666.9102,0.001977
2668.7739,0.002103
2670.6376,0.002038
2672.5012,0.001957
2674.3649,0.002015
2676.2286,0.002029
2678.0922,0.001973
2679.9559,0.002059
2681.8196,0.002246
2683.6832,0.002202
2685.5469,0.002067
2687.4106,0.002044
2689.2742,0.002096
2691.1379,0.002262
2693.0016,0.002398
2694.8653,0.002444
2696.7289,0.002400
2698.5926,0.002259
2700.4563,0.002211
2702.3199,0.002248
2704.1836,0.002252
2706.0473,0.002313
2707.9109,0.002569
2709.7746,0.002801
2711.6383,0.002656
2713.5019,0.002531
2715.3656,0.002635
2717.2293,0.002692
2719.0930,0.002742
2720.9566,0.002910
2722.8203,0.003010
2724.6840,0.003006
2726.5476,0.003018
2728.4113,0.003016
2730.2750,0.003018
2732.1386,0.002919
2734.0023,0.002836
2735.8660,0.002903
2737.7296,0.003009
2739.5933,0.003010
2741.4570,0.002995
2743.3206,0.003085
2745.1843,0.003177
2747.0480,0.003298
2748.9117,0.003377
2750.7753,0.003434
2752.6390,0.003430
2754.5027,0.003240
2756.3663,0.003211
2758.2300,0.003439
2760.0937,0.003549
2761.9573,0.003548
2763.8210,0.003546
2765.6847,0.003527
2767.5483,0.003635
2769.4120,0.003746
2771.2757,0.003620
2773.1394,0.003617
2775.0030,0.003818
2776.8667,0.003885
2778.7304,0.003853
2780.5940,0.003859
2782.4577,0.004083
2784.3214,0.004232
2786.1850,0.004230
2788.0487,0.004272
2789.9124,0.004153
2791.7760,0.003993
2793.6397,0.004016
2795.5034,0.004084
2797.3670,0.004107
2799.2307,0.004292
2801.0944,0.004591
2802.9581,0.004594
2804.8217,0.004607
2806.6854,0.004735
2808.5491,0.004612
2810.4127,0.004536
2812.2764,0.004749
2814.1401,0.004865
2816.0037,0.004898
2817.8674,0.004972
2819.7311,0.005015
2821.5947,0.004953
2823.4584,0.004926
2825.3221,0.005121
2827.1857,0.005379
2829.0494,0.005541
2830.9131,0.005785
2832.7768,0.006072
2834.6404,0.006035
2836.5041,0.005954
2838.3678,0.006083
2840.2314,0.006225
2842.0951,0.006570
2843.9588,0.007010
2845.8224,0.007115
2847.6861,0.007296
2849.5498,0.007606
2851.4134,0.007649
2853.2771,0.007507
2855.1408,0.007392
2857.0045,0.007392
2858.8681,0.007283
2860.7318,0.007227
2862.5955,0.007313
2864.4591,0.007507
2866.3228,0.007904
2868.1865,0.008146
2870.0501,0.008073
2871.9138,0.007977
2873.7775,0.007839
2875.6411,0.007671
2877.5048,0.007643
2879.3685,0.007569
2881.2321,0.007523
2883.0958,0.007756
2884.9595,0.007752
2886.8232,0.007510
2888.6868,0.007453
2890.5505,0.007553
2892.4142,0.007868
2894.2778,0.007992
2896.1415,0.008010
2898.0052,0.008248
2899.8688,0.008349
2901.7325,0.008384
2903.5962,0.008688
2905.4598,0.008986
2907.3235,0.009122
2909.1872,0.009411
2911.0509,0.009677
2912.9145,0.009664
2914.7782,0.009632
2916.6419,0.009834
2918.5055,0.010020
2920.3692,0.010116
2922.2329,0.010100
2924.0965,0.009917
2925.9602,0.009755
2927.8239,0.009751
2929.6875,0.009772
2931.5512,0.009564
2933.4149,0.009146
2935.2785,0.008866
2937.1422,0.008934
2939.0059,0.008995
2940.8696,0.008902
2942.7332,0.008663
2944.5969,0.008383
2946.4606,0.008244
2948.3242,0.008215
2950.1879,0.008257
2952.0516,0.008285
2953.9152,0.008313
2955.7789,0.008423
2957.6426,0.008630
2959.5062,0.008693
2961.3699,0.008478
2963.2336,0.007996
2965.0972,0.007454
2966.9609,0.007256
2968.8246,0.007176
2970.6883,0.006995
2972.5519,0.006980
2974.4156,0.006924
2976.2793,0.006690
2978.1429,0.006515
2980.0066,0.006471
2981.8703,0.006329
2983.7339,0.006188
2985.5976,0.006130
2987.4613,0.005943
2989.3249,0.005845
2991.1886,0.005772
2993.0523,0.005541
2994.9160,0.005276
2996.7796,0.005140
2998.6433,0.005216
3000.5070,0.005385
3002.3706,0.005473
3004.2343,0.005647
3006.0980,0.005987
3007.9616,0.005981
3009.8253,0.005676
3011.6890,0.005825
3013.5526,0.005947
3015.4163,0.005768
3017.2800,0.005890
3019.1436,0.006027
3021.0073,0.005968
3022.8710,0.005846
3024.7347,0.006015
3026.5983,0.006375
3028.4620,0.006353
3030.3257,0.006142
3032.1893,0.006177
3034.0530,0.006382
3035.9167,0.006459
3037.7803,0.006402
3039.6440,0.006322
3041.5077,0.006214
3043.3713,0.006257
3045.2350,0.006556
3047.0987,0.006721
3048.9624,0.006692
3050.8260,0.006720
3052.6897,0.006599
3054.5534,0.006410
3056.4170,0.006555
3058.2807,0.006807
3060.1444,0.007044
3062.0080,0.007253
3063.8717,0.007099
3065.7354,0.006749
3067.5990,0.006660
3069.4627,0.006552
3071.3264,0.006476
3073.1900,0.006713
3075.0537,0.006949
3076.9174,0.007038
3078.7811,0.006835
3080.6447,0.006633
3082.5084,0.006593
3084.3721,0.006499
3086.2357,0.006547
3088.0994,0.006674
3089.9631,0.006498
3091.8267,0.006326
3093.6904,0.006540
3095.5541,0.006548
3097.4177,0.006246
3099.2814,0.006182
3101.1451,0.006310
3103.0087,0.006451
3104.8724,0.006507
3106.7361,0.006432
3108.5998,0.006400
3110.4634,0.006534
3112.3271,0.006620
3114.1908,0.006532
3116.0544,0.006524
3117.9181,0.006529
3119.7818,0.006720
3121.6454,0.006872
3123.5091,0.006577
3125.3728,0.006394
3127.2364,0.006297
3129.1001,0.006513
3130.9638,0.007069
3132.8275,0.007273
3134.6911,0.007155
3136.5548,0.006973
3138.4185,0.007044
3140.2821,0.007184
3142.1458,0.007101
3144.0095,0.007085
3145.8731,0.007149
3147.7368,0.007196
3149.6005,0.007254
3151.4641,0.007313
3153.3278,0.007377
3155.1915,0.007478
3157.0551,0.007676
3158.9188,0.007783
3160.7825,0.007893
3162.6462,0.007925
3164.5098,0.008157
3166.3735,0.008403
3168.2372,0.008214
3170.1008,0.008188
3171.9645,0.008458
3173.8282,0.008334
3175.6918,0.008090
3177.5555,0.008359
3179.4192,0.008447
3181.2828,0.008317
3183.1465,0.008518
3185.0102,0.008549
3186.8739,0.008501
3188.7375,0.008783
3190.6012,0.008895
3192.4649,0.008731
3194.3285,0.008853
3196.1922,0.009161
3198.0559,0.009249
3199.9195,0.009121
3201.7832,0.009085
3203.6469,0.009389
3205.5105,0.009488
3207.3742,0.009095
3209.2379,0.009050
3211.1015,0.009193
3212.9652,0.009201
3214.8289,0.009275
3216.6926,0.009230
3218.5562,0.009287
3220.4199,0.009460
3222.2836,0.009540
3224.1472,0.009718
3226.0109,0.009820
3227.8746,0.009610
3229.7382,0.009238
3231.6019,0.009177
3233.4656,0.009635
3235.3292,0.010129
3237.1929,0.010291
3239.0566,0.010405
3240.9202,0.010308
3242.7839,0.010224
3244.6476,0.010320
3246.5113,0.010300
3248.3749,0.010614
3250.2386,0.010929
3252.1023,0.010663
3253.9659,0.010658
3255.8296,0.010825
3257.6933,0.010837
3259.5569,0.011022
3261.4206,0.011178
3263.2843,0.011270
3265.1479,0.011098
3267.0116,0.010766
3268.8753,0.010611
3270.7390,0.010964
3272.6026,0.011650
3274.4663,0.011796
3276.3300,0.011537
3278.1936,0.011236
3280.0573,0.010991
3281.9210,0.010868
3283.7846,0.010757
3285.6483,0.010824
3287.5120,0.010674
3289.3756,0.010436
3291.2393,0.010415
3293.1030,0.010446
3294.9666,0.010619
3296.8303,0.010677
3298.6940,0.010389
3300.5577,0.010356
3302.4213,0.010510
3304.2850,0.010173
3306.1487,0.009874
3308.0123,0.010000
3309.8760,0.010167
3311.7397,0.010038
3313.6033,0.009609
3315.4670,0.009265
3317.3307,0.009279
3319.1943,0.009217
3321.0580,0.008920
3322.9217,0.008770
3324.7854,0.008824
3326.6490,0.008690
3328.5127,0.008523
3330.3764,0.008539
3332.2400,0.008429
3334.1037,0.008237
3335.9674,0.007971
3337.8310,0.007671
3339.6947,0.007589
3341.5584,0.007842
3343.4220,0.007738
3345.2857,0.007426
3347.1494,0.007503
3349.0130,0.007585
3350.8767,0.007527
3352.7404,0.007565
3354.6041,0.007507
3356.4677,0.007198
3358.3314,0.006994
3360.1951,0.006888
3362.0587,0.007098
3363.9224,0.007111
3365.7861,0.006945
3367.6497,0.006978
3369.5134,0.006667
3371.3771,0.006396
3373.2407,0.006336
3375.1044,0.006241
3376.9681,0.005986
3378.8317,0.005680
3380.6954,0.005754
3382.5591,0.005989
3384.4228,0.005862
3386.2864,0.005487
3388.1501,0.005030
3390.0138,0.004715
3391.8774,0.005045
3393.7411,0.005590
3395.6048,0.005583
3397.4684,0.005085
3399.3321,0.004708
3401.1958,0.004501
3403.0594,0.004707
3404.9231,0.005209
3406.7868,0.005293
3408.6505,0.004791
3410.5141,0.004133
3412.3778,0.003983
3414.2415,0.004290
3416.1051,0.004782
3417.9688,0.005044
3419.8325,0.004868
3421.6961,0.004499
3423.5598,0.004101
3425.4235,0.003722
3427.2871,0.003675
3429.1508,0.003668
3431.0145,0.003269
3432.8781,0.003409
3434.7418,0.003892
3436.6055,0.003709
3438.4692,0.003530
3440.3328,0.003378
3442.1965,0.002690
3444.0602,0.002545
3445.9238,0.002899
3447.7875,0.002794
3449.6512,0.002520
3451.5148,0.002604
3453.3785,0.002751
3455.2422,0.002644
3457.1058,0.002738
3458.9695,0.002656
3460.8332,0.002241
3462.6969,0.002329
3464.5605,0.002396
3466.4242,0.002297
3468.2879,0.002259
3470.1515,0.001997
3472.0152,0.001807
3473.8789,0.001645
3475.7425,0.001980
3477.6062,0.002300
3479.4699,0.002129
3481.3335,0.002161
3483.1972,0.001736
3485.0609,0.001307
3486.9245,0.001470
3488.7882,0.001285
3490.6519,0.001066
3492.5156,0.001420
3494.3792,0.001002
3496.2429,0.000332
3498.1066,0.000556
3499.9702,0.000762
3501.8339,0.000456
3503.6976,0.000636
3505.5612,0.001207
3507.4249,0.000968
3509.2886,0.000457
3511.1522,0.000199
3513.0159,0.000162
3514.8796,0.000214
3516.7432,0.000233
3518.6069,0.000230
3520.4706,0.000303
3522.3343,-0.000214
3524.1979,-0.001011
3526.0616,-0.000688
3527.9253,0.000150
3529.7889,0.000532
3531.6526,0.000507
3533.5163,0.000242
3535.3799,-0.000149
3537.2436,-0.000434
3539.1073,-0.000498
3540.9709,-0.000509
3542.8346,-0.000974
3544.6983,-0.001167
3546.5620,-0.000859
3548.4256,-0.000679
3550.2893,-0.000737
3552.1530,-0.000584
3554.0166,-0.000637
3555.8803,-0.001047
3557.7440,-0.001147
3559.6076,-0.001126
3561.4713,-0.001306
3563.3350,-0.001664
3565.1986,-0.002026
3567.0623,-0.002084
3568.9260,-0.001838
3570.7896,-0.001288
3572.6533,-0.001053
3574.5170,-0.001642
3576.3807,-0.002102
3578.2443,-0.001674
3580.1080,-0.001328
3581.9717,-0.001314
3583.8353,-0.001460
3585.6990,-0.001807
3587.5627,-0.002100
3589.4263,-0.002307
3591.2900,-0.001777
3593.1537,-0.001653
3595.0173,-0.002134
3596.8810,-0.002120
3598.7447,-0.001902
3600.6084,-0.001524
3602.4720,-0.001705
3604.3357,-0.002300
3606.1994,-0.002126
3608.0630,-0.002262
3609.9267,-0.003016
3611.7904,-0.003030
3613.6540,-0.002861
3615.5177,-0.003180
3617.3814,-0.002830
3619.2450,-0.001720
3621.1087,-0.001337
3622.9724,-0.002185
3624.8360,-0.002581
3626.6997,-0.002592
3628.5634,-0.002887
3630.4271,-0.002906
3632.2907,-0.002483
3634.1544,-0.002252
3636.0181,-0.002508
3637.8817,-0.003045
3639.7454,-0.003410
3641.6091,-0.003454
3643.4727,-0.003169
3645.3364,-0.003103
3647.2001,-0.003615
3649.0637,-0.004054
3650.9274,-0.003325
3652.7911,-0.002380
3654.6547,-0.002112
3656.5184,-0.002454
3658.3821,-0.002953
3660.2458,-0.003124
3662.1094,-0.003281
3663.9731,-0.003439
3665.8368,-0.003179
3667.7004,-0.002756
3669.5641,-0.003466
3671.4278,-0.004185
3673.2914,-0.003397
3675.1551,-0.002921
3677.0188,-0.003189
3678.8824,-0.003575
3680.7461,-0.003413
3682.6098,-0.002975
3684.4735,-0.002633
3686.3371,-0.002673
3688.2008,-0.003294
3690.0645,-0.004109
3691.9281,-0.003917
3693.7918,-0.003246
3695.6555,-0.003216
3697.5191,-0.003465
3699.3828,-0.003461
3701.2465,-0.003316
3703.1101,-0.003339
3704.9738,-0.003232
3706.8375,-0.003145
3708.7011,-0.003472
3710.5648,-0.003783
3712.4285,-0.003602
3714.2922,-0.002974
3716.1558,-0.002556
3718.0195,-0.002498
3719.8832,-0.003086
3721.7468,-0.003644
3723.6105,-0.003690
3725.4742,-0.003541
3727.3378,-0.003139
3729.2015,-0.002903
3731.0652,-0.003227
3732.9288,-0.003355
3734.7925,-0.003470
3736.6562,-0.003730
3738.5199,-0.003327
3740.3835,-0.002637
3742.2472,-0.002519
3744.1109,-0.003413
3745.9745,-0.003866
3747.8382,-0.003012
3749.7019,-0.002864
3751.5655,-0.002979
3753.4292,-0.002936
3755.2929,-0.003093
3757.1565,-0.003069
3759.0202,-0.003184
3760.8839,-0.003408
3762.7475,-0.003159
3764.6112,-0.002827
3766.4749,-0.002864
3768.3386,-0.003027
3770.2022,-0.003317
3772.0659,-0.003363
3773.9296,-0.003036
3775.7932,-0.002862
3777.6569,-0.002961
3779.5206,-0.003170
3781.3842,-0.003143
3783.2479,-0.003029
3785.1116,-0.003180
3786.9752,-0.003215
3788.8389,-0.003303
3790.7026,-0.003086
3792.5662,-0.003111
3794.4299,-0.003170
3796.2936,-0.002799
3798.1573,-0.002901
3800.0209,-0.003187
3801.8846,-0.003727
3803.7483,-0.003815
3805.6119,-0.003427
3807.4756,-0.003338
3809.3393,-0.002983
3811.2029,-0.002764
3813.0666,-0.003029
3814.9303,-0.003179
3816.7939,-0.003081
3818.6576,-0.003122
3820.5213,-0.003231
3822.3850,-0.003480
3824.2486,-0.003406
3826.1123,-0.003257
3827.9760,-0.003215
3829.8396,-0.003251
3831.7033,-0.003388
3833.5670,-0.003228
3835.4306,-0.003094
3837.2943,-0.003580
3839.1580,-0.003584
3841.0216,-0.003146
3842.8853,-0.003311
3844.7490,-0.003460
3846.6126,-0.003059
3848.4763,-0.002891
3850.3400,-0.003172
3852.2037,-0.003211
3854.0673,-0.003487
3855.9310,-0.003729
3857.7947,-0.003281
3859.6583,-0.003210
3861.5220,-0.003447
3863.3857,-0.003580
3865.2493,-0.003698
3867.1130,-0.003298
3868.9767,-0.003183
3870.8403,-0.003649
3872.7040,-0.003504
3874.5677,-0.003086
3876.4314,-0.003223
3878.2950,-0.003235
3880.1587,-0.003251
3882.0224,-0.003278
3883.8860,-0.003008
3885.7497,-0.003170
3887.6134,-0.003409
3889.4770,-0.003164
3891.3407,-0.002923
3893.2044,-0.002936
3895.0680,-0.003365
3896.9317,-0.003547
3898.7954,-0.003303
3900.6590,-0.003214
3902.5227,-0.003165
3904.3864,-0.002979
3906.2501,-0.002875
3908.1137,-0.003080
3909.9774,-0.003089
3911.8411,-0.002861
3913.7047,-0.002869
3915.5684,-0.003273
3917.4321,-0.003641
3919.2957,-0.003651
3921.1594,-0.003375
3923.0231,-0.002813
3924.8867,-0.002457
3926.7504,-0.002759
3928.6141,-0.003052
3930.4777,-0.003038
3932.3414,-0.003051
3934.2051,-0.003035
3936.0688,-0.003101
3937.9324,-0.002977
3939.7961,-0.002860
3941.6598,-0.003234
3943.5234,-0.003308
3945.3871,-0.002827
3947.2508,-0.002718
3949.1144,-0.003092
3950.9781,-0.003263
3952.8418,-0.002702
3954.7054,-0.002540
3956.5691,-0.002867
3958.4328,-0.002959
3960.2965,-0.003015
3962.1601,-0.003146
3964.0238,-0.003082
3965.8875,-0.003234
3967.7511,-0.003379
3969.6148,-0.002871
3971.4785,-0.002729
3973.3421,-0.003377
3975.2058,-0.003365
3977.0695,-0.002718
3978.9331,-0.002256
3980.7968,-0.002312
3982.6605,-0.002644
3984.5241,-0.003070
3986.3878,-0.002937
3988.2515,-0.002875
3990.1152,-0.003321
3991.9788,-0.003517
3993.8425,-0.003367
3995.7062,-0.002966
3997.5698,-0.003021
3999.4335,-0.003266
