Wavenumber,Intensity
650.4205,0.054751
652.2841,0.051316
654.1478,0.051214
656.0115,0.051822
657.8751,0.053835
659.7388,0.057219
661.6025,0.056144
663.4661,0.052742
665.3298,0.052208
667.1935,0.053982
669.0571,0.054819
670.9208,0.054860
672.7845,0.053586
674.6481,0.051344
676.5118,0.050628
678.3755,0.050152
680.2392,0.049574
682.1028,0.048484
683.9665,0.047425
685.8302,0.047473
687.6938,0.046836
689.5575,0.046469
691.4212,0.046136
693.2848,0.046825
695.1485,0.047783
697.0122,0.047014
698.8758,0.046119
700.7395,0.045568
702.6032,0.044592
704.4669,0.044111
706.3305,0.044699
708.1942,0.044769
710.0579,0.043457
711.9215,0.042755
713.7852,0.042351
715.6489,0.041235
717.5125,0.040288
719.3762,0.039888
721.2399,0.039397
723.1035,0.038934
724.9672,0.038510
726.8309,0.038205
728.6945,0.037584
730.5582,0.037316
732.4219,0.037517
734.2856,0.037797
736.1492,0.037906
738.0129,0.037911
739.8766,0.037239
741.7402,0.036710
743.6039,0.036192
745.4676,0.035532
747.3312,0.035629
749.1949,0.035949
751.0586,0.035618
752.9222,0.034937
754.7859,0.034378
756.6496,0.034206
758.5132,0.034151
760.3769,0.033991
762.2406,0.033649
764.1043,0.033894
765.9679,0.033858
767.8316,0.033141
769.6953,0.032699
771.5589,0.032264
773.4226,0.031980
775.2863,0.032009
777.1499,0.031781
779.0136,0.031507
780.8773,0.031314
782.7409,0.031002
784.6046,0.030523
786.4683,0.030192
788.3320,0.029882
790.1956,0.029615
792.0593,0.029753
793.9230,0.029565
795.7866,0.029189
797.6503,0.029019
799.5140,0.028771
801.3776,0.028596
803.2413,0.028822
805.1050,0.029107
806.9686,0.028797
808.8323,0.028522
810.6960,0.028327
812.5596,0.028232
814.4233,0.028396
816.2870,0.028322
818.1507,0.028001
820.0143,0.027503
821.8780,0.026898
823.7417,0.026331
825.6053,0.025756
827.4690,0.025558
829.3327,0.025539
831.1963,0.025450
833.0600,0.025189
834.9237,0.024760
836.7873,0.024493
838.6510,0.024406
840.5147,0.024191
842.3784,0.024260
844.2420,0.024124
846.1057,0.023976
847.9694,0.024146
849.8330,0.024141
851.6967,0.023888
853.5604,0.023821
855.4240,0.023865
857.2877,0.023744
859.1514,0.023818
861.0150,0.024165
862.8787,0.024521
864.7424,0.024882
866.6060,0.025046
868.4697,0.024939
870.3334,0.024960
872.1971,0.025272
874.0607,0.025322
875.9244,0.025229
877.7881,0.025147
879.6517,0.024899
881.5154,0.024709
883.3791,0.024629
885.2427,0.024511
887.1064,0.024521
888.9701,0.024486
890.8337,0.024485
892.6974,0.024765
894.5611,0.024841
896.4247,0.024575
898.2884,0.024529
900.1521,0.024545
902.0158,0.024467
903.8794,0.024375
905.7431,0.024517
907.6068,0.024754
909.4704,0.024921
911.3341,0.025101
913.1978,0.025394
915.0614,0.025756
916.9251,0.025860
918.7888,0.025813
920.6524,0.025982
922.5161,0.026163
924.3798,0.026243
926.2435,0.026318
928.1071,0.026383
929.9708,0.026491
931.8345,0.026533
933.6981,0.026591
935.5618,0.026795
937.4255,0.027066
939.2891,0.027401
941.1528,0.027844
943.0165,0.028035
944.8801,0.028257
946.7438,0.028520
948.6075,0.028622
950.4711,0.028843
952.3348,0.029113
954.1985,0.029432
956.0622,0.029811
957.9258,0.030322
959.7895,0.031029
961.6532,0.031788
963.5168,0.032426
965.3805,0.033034
967.2442,0.033476
969.1078,0.033516
970.9715,0.033371
972.8352,0.033346
974.6988,0.033332
976.5625,0.033490
978.4262,0.033965
980.2899,0.034446
982.1535,0.034843
984.0172,0.035457
985.8809,0.036059
987.7445,0.036479
989.6082,0.037050
991.4719,0.037789
993.3355,0.038504
995.1992,0.039182
997.0629,0.039860
998.9265,0.040360
1000.7902,0.040843
1002.6539,0.041480
1004.5175,0.042313
1006.3812,0.043209
1008.2449,0.044112
1010.1086,0.045185
1011.9722,0.046365
1013.8359,0.047535
1015.6996,0.048480
1017.5632,0.049165
1019.4269,0.049667
1021.2906,0.050074
1023.1542,0.050396
1025.0179,0.050579
1026.8816,0.050776
1028.7452,0.051041
1030.6089,0.051203
1032.4726,0.051232
1034.3362,0.051194
1036.1999,0.051068
1038.0636,0.050865
1039.9273,0.050579
1041.7909,0.050226
1043.6546,0.049915
1045.5183,0.049724
1047.3819,0.049521
1049.2456,0.049323
1051.1093,0.049218
1052.9729,0.049159
1054.8366,0.049027
1056.7003,0.048957
1058.5639,0.048946
1060.4276,0.048922
1062.2913,0.048760
1064.1550,0.048688
1066.0186,0.048676
1067.8823,0.048504
1069.7460,0.048334
1071.6096,0.048147
1073.4733,0.047743
1075.3370,0.047179
1077.2006,0.046358
1079.0643,0.045379
1080.9280,0.044362
1082.7916,0.043336
1084.6553,0.042061
1086.5190,0.040841
1088.3826,0.039884
1090.2463,0.039004
1092.1100,0.038240
1093.9737,0.037641
1095.8373,0.037163
1097.7010,0.036655
1099.5647,0.036216
1101.4283,0.035875
1103.2920,0.035654
1105.1557,0.035565
1107.0193,0.035554
1108.8830,0.035454
1110.7467,0.035347
1112.6103,0.035345
1114.4740,0.035322
1116.3377,0.035182
1118.2014,0.034977
1120.0650,0.034748
1121.9287,0.034383
1123.7924,0.033945
1125.6560,0.033512
1127.5197,0.033130
1129.3834,0.032745
1131.2470,0.032255
1133.1107,0.031721
1134.9744,0.031208
1136.8380,0.030718
1138.7017,0.030256
1140.5654,0.030053
1142.4290,0.029971
1144.2927,0.029885
1146.1564,0.029919
1148.0201,0.030059
1149.8837,0.030172
1151.7474,0.030311
1153.6111,0.030301
1155.4747,0.030113
1157.3384,0.029993
1159.2021,0.029898
1161.0657,0.029713
1162.9294,0.029390
1164.7931,0.028891
1166.6567,0.028280
1168.5204,0.027717
1170.3841,0.027046
1172.2477,0.026253
1174.1114,0.025479
1175.9751,0.024742
1177.8388,0.024082
1179.7024,0.023668
1181.5661,0.023441
1183.4298,0.023411
1185.2934,0.023539
1187.1571,0.023693
1189.0208,0.023937
1190.8844,0.024267
1192.7481,0.024648
1194.6118,0.025024
1196.4754,0.025398
1198.3391,0.025878
1200.2028,0.026347
1202.0665,0.026822
1203.9301,0.027250
1205.7938,0.027543
1207.6575,0.027775
1209.5211,0.028018
1211.3848,0.028341
1213.2485,0.028701
1215.1121,0.029004
1216.9758,0.029411
1218.8395,0.029911
1220.7031,0.030361
1222.5668,0.030752
1224.4305,0.031130
1226.2941,0.031446
1228.1578,0.031804
1230.0215,0.032120
1231.8852,0.032329
1233.7488,0.032401
1235.6125,0.032446
1237.4762,0.032409
1239.3398,0.032288
1241.2035,0.032071
1243.0672,0.031869
1244.9308,0.031698
1246.7945,0.031395
1248.6582,0.031077
1250.5218,0.030677
1252.3855,0.030319
1254.2492,0.030134
1256.1129,0.029897
1257.9765,0.029638
1259.8402,0.029392
1261.7039,0.029220
1263.5675,0.029068
1265.4312,0.028941
1267.2949,0.028842
1269.1585,0.028708
1271.0222,0.028565
1272.8859,0.028518
1274.7495,0.028501
1276.6132,0.028410
1278.4769,0.028349
1280.3405,0.028319
1282.2042,0.028268
1284.0679,0.028212
1285.9316,0.028104
1287.7952,0.028151
1289.6589,0.028259
1291.5226,0.028362
1293.3862,0.028433
1295.2499,0.028603
1297.1136,0.028838
1298.9772,0.029008
1300.8409,0.029246
1302.7046,0.029571
1304.5682,0.029797
1306.4319,0.029915
1308.2956,0.030020
1310.1592,0.030119
1312.0229,0.030232
1313.8866,0.030309
1315.7503,0.030242
1317.6139,0.030164
1319.4776,0.030104
1321.3413,0.029875
1323.2049,0.029585
1325.0686,0.029400
1326.9323,0.029368
1328.7959,0.029295
1330.6596,0.029224
1332.5233,0.029242
1334.3869,0.029212
1336.2506,0.029289
1338.1143,0.029555
1339.9780,0.029915
1341.8416,0.029854
1343.7053,0.029665
1345.5690,0.029717
1347.4326,0.029767
1349.2963,0.029703
1351.1600,0.029503
1353.0236,0.029380
1354.8873,0.029517
1356.7510,0.029532
1358.6146,0.029420
1360.4783,0.029786
1362.3420,0.030820
1364.2056,0.031363
1366.0693,0.031500
1367.9330,0.032093
1369.7967,0.032522
1371.6603,0.032796
1373.5240,0.033568
1375.3877,0.034126
1377.2513,0.034071
1379.1150,0.034159
1380.9787,0.034172
1382.8423,0.033962
1384.7060,0.033877
1386.5697,0.034542
1388.4333,0.034883
1390.2970,0.034310
1392.1607,0.033972
1394.0244,0.034477
1395.8880,0.034885
1397.7517,0.034905
1399.6154,0.035036
1401.4790,0.034453
1403.3427,0.034338
1405.2064,0.034708
1407.0700,0.034370
1408.9337,0.033756
1410.7974,0.033553
1412.6610,0.033213
1414.5247,0.032765
1416.3884,0.032593
1418.2520,0.033474
1420.1157,0.033972
1421.9794,0.033365
1423.8431,0.033574
1425.7067,0.033620
1427.5704,0.033618
1429.4341,0.034272
1431.2977,0.034567
1433.1614,0.034437
1435.0251,0.035217
1436.8887,0.037253
1438.7524,0.037189
1440.6161,0.036653
1442.4797,0.036556
1444.3434,0.036271
1446.2071,0.036159
1448.0707,0.036446
1449.9344,0.035923
1451.7981,0.034987
1453.6618,0.033904
1455.5254,0.034252
1457.3891,0.035936
1459.2528,0.034518
1461.1164,0.032603
1462.9801,0.031854
1464.8438,0.032203
1466.7074,0.031373
1468.5711,0.029961
1470.4348,0.029417
1472.2984,0.030114
1474.1621,0.029890
1476.0258,0.029267
1477.8895,0.028697
1479.7531,0.028434
1481.6168,0.028525
1483.4805,0.028369
1485.3441,0.028647
1487.2078,0.029843
1489.0715,0.031611
1490.9351,0.032831
1492.7988,0.032677
1494.6625,0.033437
1496.5261,0.035731
1498.3898,0.037374
1500.2535,0.037713
1502.1171,0.037387
1503.9808,0.037617
1505.8445,0.041402
1507.7082,0.045611
1509.5718,0.044857
1511.4355,0.044605
1513.2992,0.044785
1515.1628,0.045049
1517.0265,0.045759
1518.8902,0.045638
1520.7538,0.046884
1522.6175,0.047795
1524.4812,0.047460
1526.3448,0.047748
1528.2085,0.047432
1530.0722,0.046701
1531.9359,0.046750
1533.7995,0.047388
1535.6632,0.045984
1537.5269,0.045254
1539.3905,0.047023
1541.2542,0.048013
1543.1179,0.046833
1544.9815,0.045729
1546.8452,0.044212
1548.7089,0.043262
1550.5725,0.042367
1552.4362,0.040977
1554.2999,0.039617
1556.1635,0.038382
1558.0272,0.039777
1559.8909,0.040868
1561.7546,0.038134
1563.6182,0.036390
1565.4819,0.035593
1567.3456,0.035036
1569.2092,0.035004
1571.0729,0.034331
1572.9366,0.033357
1574.8002,0.033761
1576.6639,0.034763
1578.5276,0.034148
1580.3912,0.033736
1582.2549,0.033863
1584.1186,0.034116
1585.9822,0.034423
1587.8459,0.034857
1589.7096,0.035463
1591.5733,0.036229
1593.4369,0.036925
1595.3006,0.037532
1597.1643,0.038149
1599.0279,0.038887
1600.8916,0.039858
1602.7553,0.040960
1604.6189,0.041795
1606.4826,0.042592
1608.3463,0.043764
1610.2099,0.044754
1612.0736,0.045330
1613.9373,0.045863
1615.8010,0.047787
1617.6646,0.049556
1619.5283,0.049137
1621.3920,0.049031
1623.2556,0.050395
1625.1193,0.051003
1626.9830,0.051164
1628.8466,0.051065
1630.7103,0.050228
1632.5740,0.049357
1634.4376,0.049921
1636.3013,0.050860
1638.1650,0.049546
1640.0286,0.047785
1641.8923,0.046192
1643.7560,0.044980
1645.6197,0.044693
1647.4833,0.044506
1649.3470,0.042757
1651.2107,0.041485
1653.0743,0.042891
1654.9380,0.041970
1656.8017,0.039589
1658.6653,0.037742
1660.5290,0.036417
1662.3927,0.035303
1664.2563,0.033771
1666.1200,0.032244
1667.9837,0.031191
1669.8474,0.030151
1671.7110,0.028654
1673.5747,0.027222
1675.4384,0.026318
1677.3020,0.024879
1679.1657,0.023307
1681.0294,0.021816
1682.8930,0.021014
1684.7567,0.020034
1686.6204,0.018369
1688.4840,0.016877
1690.3477,0.015339
1692.2114,0.013755
1694.0750,0.012346
1695.9387,0.010731
1697.8024,0.009286
1699.6661,0.008243
1701.5297,0.006553
1703.3934,0.005771
1705.2571,0.005046
1707.1207,0.004375
1708.9844,0.003758
1710.8481,0.003067
1712.7117,0.002581
1714.5754,0.002238
1716.4391,0.001812
1718.3027,0.001454
1720.1664,0.001085
1722.0301,0.000733
1723.8937,0.000510
1725.7574,0.000454
1727.6211,0.000172
1729.4848,-0.000003
1731.3484,-0.000100
1733.2121,-0.000275
1735.0758,-0.000950
1736.9394,-0.001165
1738.8031,-0.001099
1740.6668,-0.001128
1742.5304,-0.001291
1744.3941,-0.001459
1746.2578,-0.001563
1748.1214,-0.001846
1749.9851,-0.002144
1751.8488,-0.002329
1753.7125,-0.002572
1755.5761,-0.002838
1757.4398,-0.003134
1759.3035,-0.003211
1761.1671,-0.003178
1763.0308,-0.003123
1764.8945,-0.003259
1766.7581,-0.003444
1768.6218,-0.003520
1770.4855,-0.003567
1772.3491,-0.003970
1774.2128,-0.003851
1776.0765,-0.003466
1777.9401,-0.003481
1779.8038,-0.003506
1781.6675,-0.003515
1783.5312,-0.003442
1785.3948,-0.003668
1787.2585,-0.003797
1789.1222,-0.003747
1790.9858,-0.003655
1792.8495,-0.003749
1794.7132,-0.003842
1796.5768,-0.003761
1798.4405,-0.003657
1800.3042,-0.003740
1802.1678,-0.003824
1804.0315,-0.003917
1805.8952,-0.003904
1807.7589,-0.003777
1809.6225,-0.003890
1811.4862,-0.003819
1813.3499,-0.003730
1815.2135,-0.003929
1817.0772,-0.003990
1818.9409,-0.003898
1820.8045,-0.003772
1822.6682,-0.003629
1824.5319,-0.003528
1826.3955,-0.003620
1828.2592,-0.003726
1830.1229,-0.003621
1831.9865,-0.003357
1833.8502,-0.003540
1835.7139,-0.003813
1837.5776,-0.003654
1839.4412,-0.003409
1841.3049,-0.003192
1843.1686,-0.003201
1845.0322,-0.003523
1846.8959,-0.003624
1848.7596,-0.003584
1850.6232,-0.003557
1852.4869,-0.003769
1854.3506,-0.003965
1856.2142,-0.003638
1858.0779,-0.003427
1859.9416,-0.003741
1861.8052,-0.003865
1863.6689,-0.003540
1865.5326,-0.003513
1867.3963,-0.003690
1869.2599,-0.003458
1871.1236,-0.003163
1872.9873,-0.003202
1874.8509,-0.003300
1876.7146,-0.003404
1878.5783,-0.003675
1880.4419,-0.003884
1882.3056,-0.003488
1884.1693,-0.003077
1886.0329,-0.002991
1887.8966,-0.002945
1889.7603,-0.002853
1891.6240,-0.002898
1893.4876,-0.003191
1895.3513,-0.003302
1897.2150,-0.003261
1899.0786,-0.003336
1900.9423,-0.003302
1902.8060,-0.003152
1904.6696,-0.002766
1906.5333,-0.002831
1908.3970,-0.003332
1910.2606,-0.003339
1912.1243,-0.002743
1913.9880,-0.002315
1915.8516,-0.002420
1917.7153,-0.002870
1919.5790,-0.003114
1921.4427,-0.002902
1923.3063,-0.002399
1925.1700,-0.002237
1927.0337,-0.002592
1928.8973,-0.002788
1930.7610,-0.002365
1932.6247,-0.002332
1934.4883,-0.002357
1936.3520,-0.002102
1938.2157,-0.002499
1940.0793,-0.003244
1941.9430,-0.002813
1943.8067,-0.002161
1945.6704,-0.002678
1947.5340,-0.002825
1949.3977,-0.002295
1951.2614,-0.001870
1953.1250,-0.002304
1954.9887,-0.001875
1956.8524,-0.000817
1958.7160,-0.000775
1960.5797,-0.000805
1962.4434,-0.001649
1964.3070,-0.002046
1966.1707,-0.001493
1968.0344,-0.001985
1969.8980,-0.002140
1971.7617,-0.000613
1973.6254,-0.000958
1975.4891,-0.002034
1977.3527,-0.000255
1979.2164,0.001706
1981.0801,0.001675
1982.9437,0.001099
1984.8074,0.000279
1986.6711,-0.000142
1988.5347,-0.000344
1990.3984,-0.001169
1992.2621,-0.001526
1994.1257,-0.000380
1995.9894,-0.000833
1997.8531,-0.001322
1999.7167,-0.000557
2001.5804,-0.000040
2003.4441,0.000220
2005.3078,0.000576
2007.1714,0.000484
2009.0351,0.000050
2010.8988,0.000256
2012.7624,-0.000017
2014.6261,-0.000193
2016.4898,0.000340
2018.3534,0.000781
2020.2171,0.001189
2022.0808,0.000689
2023.9444,0.000549
2025.8081,0.000638
2027.6718,0.001748
2029.5355,0.003447
2031.3991,0.004078
2033.2628,0.003265
2035.1265,0.002796
2036.9901,0.003465
2038.8538,0.003867
2040.7175,0.004460
2042.5811,0.006216
2044.4448,0.006452
2046.3085,0.005522
2048.1721,0.005924
2050.0358,0.006192
2051.8995,0.006245
2053.7631,0.006169
2055.6268,0.006369
2057.4905,0.006316
2059.3542,0.005812
2061.2178,0.005412
2063.0815,0.005265
2064.9452,0.005444
2066.8088,0.005235
2068.6725,0.004376
2070.5362,0.003324
2072.3998,0.002948
2074.2635,0.003109
2076.1272,0.003084
2077.9908,0.002338
2079.8545,0.001415
2081.7182,0.001343
2083.5819,0.001606
2085.4455,0.001218
2087.3092,0.000383
2089.1729,0.000197
2091.0365,0.000067
2092.9002,-0.000866
2094.7639,-0.001383
2096.6275,-0.000751
2098.4912,-0.000438
2100.3549,-0.000584
2102.2185,-0.000268
2104.0822,-0.000253
2105.9459,-0.000440
2107.8095,-0.000353
2109.6732,-0.000576
2111.5369,-0.001270
2113.4006,-0.001712
2115.2642,-0.001154
2117.1279,-0.000501
2118.9916,-0.000418
2120.8552,-0.001171
2122.7189,-0.001924
2124.5826,-0.002287
2126.4462,-0.001978
2128.3099,-0.001433
2130.1736,-0.001253
2132.0372,-0.001795
2133.9009,-0.001949
2135.7646,-0.001391
2137.6282,-0.001201
2139.4919,-0.001508
2141.3556,-0.001469
2143.2193,-0.000506
2145.0829,0.000484
2146.9466,-0.000627
2148.8103,-0.000913
2150.6739,0.000124
2152.5376,-0.000356
2154.4013,-0.000134
2156.2649,0.000839
2158.1286,0.000963
2159.9923,0.001409
2161.8559,0.001759
2163.7196,0.001720
2165.5833,0.000451
2167.4470,0.000703
2169.3106,0.002288
2171.1743,0.001507
2173.0380,0.000435
2174.9016,0.000145
2176.7653,0.001394
2178.6290,0.001997
2180.4926,0.000791
2182.3563,0.000854
2184.2200,0.001236
2186.0836,0.000739
2187.9473,0.000376
2189.8110,0.000549
2191.6746,0.000269
2193.5383,-0.000279
2195.4020,-0.000291
2197.2657,0.000555
2199.1293,0.000535
2200.9930,0.000209
2202.8567,0.000745
2204.7203,0.000384
2206.5840,0.000058
2208.4477,-0.000254
2210.3113,0.000263
2212.1750,0.001053
2214.0387,0.001332
2215.9023,0.000561
2217.7660,0.000225
2219.6297,0.000407
2221.4934,-0.000270
2223.3570,-0.000210
2225.2207,-0.000627
2227.0844,-0.000699
2228.9480,0.000547
2230.8117,0.000355
2232.6754,-0.000164
2234.5390,-0.000133
2236.4027,-0.000461
2238.2664,-0.000686
2240.1300,-0.000103
2241.9937,0.000022
2243.8574,-0.000502
2245.7210,-0.000738
2247.5847,-0.000095
2249.4484,-0.000296
2251.3121,-0.000530
2253.1757,-0.000328
2255.0394,-0.000178
2256.9031,-0.000106
2258.7667,0.000009
2260.6304,-0.000422
2262.4941,-0.000864
2264.3577,-0.000531
2266.2214,-0.000282
2268.0851,0.000022
2269.9487,0.000150
2271.8124,-0.000471
2273.6761,-0.000806
2275.5397,-0.000004
2277.4034,0.000542
2279.2671,0.000378
2281.1308,0.000087
2282.9944,0.000156
2284.8581,0.000060
2286.7218,-0.000069
2288.5854,-0.000280
2290.4491,-0.000502
2292.3128,-0.000714
2294.1764,-0.001071
2296.0401,-0.000986
2297.9038,-0.000550
2299.7674,-0.000766
2301.6311,-0.001081
2303.4948,-0.000836
2305.3585,-0.000813
2307.2221,-0.000852
2309.0858,-0.000783
2310.9495,-0.000891
2312.8131,-0.001119
2314.6768,-0.001226
2316.5405,-0.000865
2318.4041,-0.000268
2320.2678,-0.000193
2322.1315,-0.000048
2323.9951,0.000037
2325.8588,-0.000228
2327.7225,-0.001088
2329.5861,-0.001174
2331.4498,-0.000926
2333.3135,-0.001291
2335.1772,-0.001688
2337.0408,-0.001262
2338.9045,-0.001129
2340.7682,-0.001086
2342.6318,-0.000961
2344.4955,-0.001112
2346.3592,-0.001171
2348.2228,-0.001528
2350.0865,-0.001970
2351.9502,-0.001908
2353.8138,-0.001569
2355.6775,-0.001616
2357.5412,-0.001198
2359.4049,-0.000744
2361.2685,-0.000979
2363.1322,-0.000659
2364.9959,-0.000726
2366.8595,-0.000867
2368.7232,-0.001062
2370.5869,-0.001288
2372.4505,-0.000660
2374.3142,-0.000331
2376.1779,-0.000452
2378.0415,-0.000558
2379.9052,-0.001063
2381.7689,-0.001352
2383.6325,-0.001353
2385.4962,-0.001075
2387.3599,-0.001164
2389.2236,-0.001277
2391.0872,-0.001212
2392.9509,-0.001136
2394.8146,-0.001281
2396.6782,-0.000966
2398.5419,-0.000806
2400.4056,-0.001170
2402.2692,-0.001278
2404.1329,-0.000912
2405.9966,-0.000704
2407.8602,-0.000786
2409.7239,-0.000949
2411.5876,-0.000937
2413.4512,-0.000895
2415.3149,-0.001161
2417.1786,-0.000965
2419.0423,-0.000312
2420.9059,-0.000403
2422.7696,-0.000745
2424.6333,-0.000731
2426.4969,-0.000332
2428.3606,-0.000248
2430.2243,-0.000425
2432.0879,-0.000296
2433.9516,0.000194
2435.8153,0.000236
2437.6789,-0.000404
2439.5426,-0.000838
2441.4063,-0.000616
2443.2700,-0.000295
2445.1336,-0.000121
2446.9973,0.000177
2448.8610,0.000255
2450.7246,0.000101
2452.5883,0.000222
2454.4520,0.000156
2456.3156,0.000119
2458.1793,0.000242
2460.0430,0.000252
2461.9066,-0.000040
2463.7703,0.000244
2465.6340,0.000410
2467.4976,0.000009
2469.3613,-0.000095
2471.2250,0.000161
2473.0887,0.000197
2474.9523,0.000040
2476.8160,0.000178
2478.6797,0.000398
2480.5433,0.000519
2482.4070,0.000492
2484.2707,0.000518
2486.1343,0.000488
2487.9980,0.000479
2489.8617,0.000454
2491.7253,0.000369
2493.5890,0.000426
2495.4527,0.000496
2497.3164,0.000534
2499.1800,0.000647
2501.0437,0.000944
2502.9074,0.000765
2504.7710,0.000538
2506.6347,0.000822
2508.4984,0.001048
2510.3620,0.000777
2512.2257,0.000807
2514.0894,0.000684
2515.9530,0.000451
2517.8167,0.000527
2519.6804,0.000783
2521.5440,0.000994
2523.4077,0.001187
2525.2714,0.000980
2527.1351,0.000984
2528.9987,0.001096
2530.8624,0.000934
2532.7261,0.000787
2534.5897,0.001016
2536.4534,0.001295
2538.3171,0.001421
2540.1807,0.001284
2542.0444,0.001108
2543.9081,0.001193
2545.7717,0.001232
2547.6354,0.001179
2549.4991,0.001135
2551.3627,0.001196
2553.2264,0.001703
2555.0901,0.001654
2556.9538,0.001282
2558.8174,0.001520
2560.6811,0.001716
2562.5448,0.001801
2564.4084,0.001897
2566.2721,0.001768
2568.1358,0.001672
2569.9994,0.001798
2571.8631,0.001953
2573.7268,0.001937
2575.5904,0.001995
2577.4541,0.001984
2579.3178,0.001874
2581.1815,0.001663
2583.0451,0.001698
2584.9088,0.002024
2586.7725,0.002359
2588.6361,0.002369
2590.4998,0.002318
2592.3635,0.002460
2594.2271,0.002383
2596.0908,0.002495
2597.9545,0.002392
2599.8181,0.002364
2601.6818,0.002832
2603.5455,0.002927
2605.4091,0.002755
2607.2728,0.002915
2609.1365,0.003157
2611.0002,0.003078
2612.8638,0.002771
2614.7275,0.002782
2616.5912,0.003040
2618.4548,0.003133
2620.3185,0.003252
2622.1822,0.003415
2624.0458,0.003415
2625.9095,0.003172
2627.7732,0.003243
2629.6368,0.003670
2631.5005,0.003773
2633.3642,0.003545
2635.2279,0.003500
2637.0915,0.003645
2638.9552,0.003715
2640.8189,0.003658
2642.6825,0.003680
2644.5462,0.003838
2646.4099,0.003722
2648.2735,0.003595
2650.1372,0.003757
2652.0009,0.003755
2653.8645,0.003881
2655.7282,0.003952
2657.5919,0.003749
2659.4555,0.003640
2661.3192,0.003817
2663.1829,0.003952
2665.0466,0.003930
2666.9102,0.003802
2668.7739,0.003790
2670.6376,0.003890
2672.5012,0.003930
2674.3649,0.003878
2676.2286,0.003921
2678.0922,0.003985
2679.9559,0.004092
2681.8196,0.004191
2683.6832,0.003991
2685.5469,0.003813
2687.4106,0.004178
2689.2742,0.004395
2691.1379,0.004210
2693.0016,0.004203
2694.8653,0.004481
2696.7289,0.004566
2698.5926,0.004422
2700.4563,0.004437
2702.3199,0.004589
2704.1836,0.004597
2706.0473,0.004686
2707.9109,0.004863
2709.7746,0.005014
2711.6383,0.005128
2713.5019,0.005199
2715.3656,0.005142
2717.2293,0.005170
2719.0930,0.005206
2720.9566,0.005273
2722.8203,0.005515
2724.6840,0.005743
2726.5476,0.005724
2728.4113,0.005615
2730.2750,0.005632
2732.1386,0.005767
2734.0023,0.005993
2735.8660,0.006144
2737.7296,0.006028
2739.5933,0.006016
2741.4570,0.006317
2743.3206,0.006445
2745.1843,0.006319
2747.0480,0.006297
2748.9117,0.006417
2750.7753,0.006313
2752.6390,0.006182
2754.5027,0.006574
2756.3663,0.006989
2758.2300,0.006971
2760.0937,0.007013
2761.9573,0.007305
2763.8210,0.007493
2765.6847,0.007437
2767.5483,0.007265
2769.4120,0.007360
2771.2757,0.007472
2773.1394,0.007560
2775.0030,0.007705
2776.8667,0.007869
2778.7304,0.007975
2780.5940,0.008054
2782.4577,0.008128
2784.3214,0.008260
2786.1850,0.008277
2788.0487,0.008441
2789.9124,0.008571
2791.7760,0.008496
2793.6397,0.008610
2795.5034,0.008856
2797.3670,0.008946
2799.2307,0.008904
2801.0944,0.009055
2802.9581,0.009140
2804.8217,0.009117
2806.6854,0.009281
2808.5491,0.009546
2810.4127,0.009768
2812.2764,0.009887
2814.1401,0.009850
2816.0037,0.009612
2817.8674,0.009675
2819.7311,0.009999
2821.5947,0.010136
2823.4584,0.010131
2825.3221,0.010284
2827.1857,0.010413
2829.0494,0.010520
2830.9131,0.010626
2832.7768,0.010729
2834.6404,0.010983
2836.5041,0.011196
2838.3678,0.011096
2840.2314,0.011157
2842.0951,0.011516
2843.9588,0.011884
2845.8224,0.012137
2847.6861,0.012336
2849.5498,0.012475
2851.4134,0.012780
2853.2771,0.013027
2855.1408,0.012953
2857.0045,0.012880
2858.8681,0.013097
2860.7318,0.013374
2862.5955,0.013473
2864.4591,0.013491
2866.3228,0.013632
2868.1865,0.013747
2870.0501,0.013921
2871.9138,0.014082
2873.7775,0.014170
2875.6411,0.014172
2877.5048,0.014061
2879.3685,0.013966
2881.2321,0.013969
2883.0958,0.013933
2884.9595,0.013868
2886.8232,0.013964
2888.6868,0.013962
2890.5505,0.013859
2892.4142,0.014033
2894.2778,0.014061
2896.1415,0.013980
2898.0052,0.014076
2899.8688,0.014589
2901.7325,0.015118
2903.5962,0.015144
2905.4598,0.014940
2907.3235,0.015066
2909.1872,0.015351
2911.0509,0.015457
2912.9145,0.015353
2914.7782,0.015406
2916.6419,0.015968
2918.5055,0.016472
2920.3692,0.016414
2922.2329,0.016245
2924.0965,0.016262
2925.9602,0.016279
2927.8239,0.016229
2929.6875,0.016479
2931.5512,0.016635
2933.4149,0.016456
2935.2785,0.016276
2937.1422,0.016061
2939.0059,0.015711
2940.8696,0.015706
2942.7332,0.015824
2944.5969,0.015686
2946.4606,0.015576
2948.3242,0.015457
2950.1879,0.015350
2952.0516,0.015361
2953.9152,0.015373
2955.7789,0.015615
2957.6426,0.015908
2959.5062,0.015962
2961.3699,0.015690
2963.2336,0.015360
2965.0972,0.015041
2966.9609,0.014905
2968.8246,0.015001
2970.6883,0.015136
2972.5519,0.014915
2974.4156,0.014487
2976.2793,0.014251
2978.1429,0.014011
2980.0066,0.013801
2981.8703,0.013752
2983.7339,0.013605
2985.5976,0.013559
2987.4613,0.013517
2989.3249,0.013300
2991.1886,0.013041
2993.0523,0.012965
2994.9160,0.012991
2996.7796,0.013002
2998.6433,0.013007
3000.5070,0.012930
3002.3706,0.012890
3004.2343,0.013186
3006.0980,0.013433
3007.9616,0.013417
3009.8253,0.013477
3011.6890,0.013693
3013.5526,0.013759
3015.4163,0.013733
3017.2800,0.013723
3019.1436,0.013927
3021.0073,0.014194
3022.8710,0.014365
3024.7347,0.014364
3026.5983,0.014235
3028.4620,0.014331
3030.3257,0.014768
3032.1893,0.015220
3034.0530,0.015228
3035.9167,0.015056
3037.7803,0.015148
3039.6440,0.015411
3041.5077,0.015563
3043.3713,0.015457
3045.2350,0.015447
3047.0987,0.015491
3048.9624,0.015860
3050.8260,0.015956
3052.6897,0.015756
3054.5534,0.015913
3056.4170,0.016150
3058.2807,0.016105
3060.1444,0.016112
3062.0080,0.016131
3063.8717,0.015923
3065.7354,0.015836
3067.5990,0.015853
3069.4627,0.015779
3071.3264,0.015907
3073.1900,0.016054
3075.0537,0.016289
3076.9174,0.016421
3078.7811,0.016170
3080.6447,0.016092
3082.5084,0.016047
3084.3721,0.015681
3086.2357,0.015700
3088.0994,0.016091
3089.9631,0.016142
3091.8267,0.015949
3093.6904,0.015764
3095.5541,0.015391
3097.4177,0.015496
3099.2814,0.015682
3101.1451,0.015583
3103.0087,0.015743
3104.8724,0.015789
3106.7361,0.015562
3108.5998,0.015531
3110.4634,0.015749
3112.3271,0.015590
3114.1908,0.015435
3116.0544,0.015794
3117.9181,0.015951
3119.7818,0.015908
3121.6454,0.015964
3123.5091,0.016049
3125.3728,0.016322
3127.2364,0.016125
3129.1001,0.015750
3130.9638,0.016174
3132.8275,0.016632
3134.6911,0.016701
3136.5548,0.016828
3138.4185,0.016813
3140.2821,0.016594
3142.1458,0.016837
3144.0095,0.017096
3145.8731,0.017093
3147.7368,0.017294
3149.6005,0.017654
3151.4641,0.017706
3153.3278,0.017879
3155.1915,0.017991
3157.0551,0.017523
3158.9188,0.017446
3160.7825,0.018269
3162.6462,0.018854
3164.5098,0.018897
3166.3735,0.019070
3168.2372,0.018934
3170.1008,0.018442
3171.9645,0.018463
3173.8282,0.018850
3175.6918,0.019122
3177.5555,0.019341
3179.4192,0.019374
3181.2828,0.019656
3183.1465,0.019590
3185.0102,0.019214
3186.8739,0.019578
3188.7375,0.020237
3190.6012,0.020051
3192.4649,0.019741
3194.3285,0.019993
3196.1922,0.020233
3198.0559,0.020260
3199.9195,0.019965
3201.7832,0.020069
3203.6469,0.020299
3205.5105,0.019714
3207.3742,0.019375
3209.2379,0.019968
3211.1015,0.020201
3212.9652,0.019949
3214.8289,0.020062
3216.6926,0.019993
3218.5562,0.020088
3220.4199,0.020486
3222.2836,0.020256
3224.1472,0.020144
3226.0109,0.020720
3227.8746,0.020798
3229.7382,0.020439
3231.6019,0.020638
3233.4656,0.020556
3235.3292,0.020216
3237.1929,0.020341
3239.0566,0.020748
3240.9202,0.021061
3242.7839,0.021035
3244.6476,0.020898
3246.5113,0.020873
3248.3749,0.020774
3250.2386,0.020808
3252.1023,0.021149
3253.9659,0.021456
3255.8296,0.021128
3257.6933,0.020493
3259.5569,0.020774
3261.4206,0.021439
3263.2843,0.021236
3265.1479,0.020916
3267.0116,0.021111
3268.8753,0.021323
3270.7390,0.021745
3272.6026,0.021394
3274.4663,0.020604
3276.3300,0.020717
3278.1936,0.020816
3280.0573,0.020844
3281.9210,0.021073
3283.7846,0.021255
3285.6483,0.020511
3287.5120,0.019676
3289.3756,0.020131
3291.2393,0.020439
3293.1030,0.020518
3294.9666,0.020644
3296.8303,0.020299
3298.6940,0.019683
3300.5577,0.019458
3302.4213,0.019330
3304.2850,0.019365
3306.1487,0.019404
3308.0123,0.019069
3309.8760,0.018699
3311.7397,0.018350
3313.6033,0.018449
3315.4670,0.018521
3317.3307,0.018238
3319.1943,0.018044
3321.0580,0.018169
3322.9217,0.018345
3324.7854,0.017833
3326.6490,0.017482
3328.5127,0.017670
3330.3764,0.017284
3332.2400,0.017115
3334.1037,0.017272
3335.9674,0.017068
3337.8310,0.016750
3339.6947,0.016554
3341.5584,0.016655
3343.4220,0.016804
3345.2857,0.016616
3347.1494,0.016470
3349.0130,0.016144
3350.8767,0.015955
3352.7404,0.015964
3354.6041,0.015872
3356.4677,0.016019
3358.3314,0.015975
3360.1951,0.015289
3362.0587,0.015037
3363.9224,0.015431
3365.7861,0.014953
3367.6497,0.015140
3369.5134,0.015247
3371.3771,0.014916
3373.2407,0.014509
3375.1044,0.014223
3376.9681,0.014591
3378.8317,0.014518
3380.6954,0.014061
3382.5591,0.014138
3384.4228,0.014150
3386.2864,0.013791
3388.1501,0.013742
3390.0138,0.013871
3391.8774,0.013573
3393.7411,0.013404
3395.6048,0.013319
3397.4684,0.012864
3399.3321,0.012705
3401.1958,0.012745
3403.0594,0.012916
3404.9231,0.013159
3406.7868,0.012684
3408.6505,0.011855
3410.5141,0.012048
3412.3778,0.012573
3414.2415,0.012617
3416.1051,0.012565
3417.9688,0.012227
3419.8325,0.011557
3421.6961,0.011614
3423.5598,0.012117
3425.4235,0.011936
3427.2871,0.012016
3429.1508,0.011433
3431.0145,0.010839
3432.8781,0.011030
3434.7418,0.011169
3436.6055,0.011265
3438.4692,0.010739
3440.3328,0.010320
3442.1965,0.010441
3444.0602,0.010511
3445.9238,0.010383
3447.7875,0.010267
3449.6512,0.010752
3451.5148,0.010669
3453.3785,0.010220
3455.2422,0.009944
3457.1058,0.009365
3458.9695,0.009079
3460.8332,0.009175
3462.6969,0.009593
3464.5605,0.009803
3466.4242,0.008805
3468.2879,0.008447
3470.1515,0.008305
3472.0152,0.008053
3473.8789,0.008082
3475.7425,0.008173
3477.6062,0.007946
3479.4699,0.007720
3481.3335,0.007830
3483.1972,0.007959
3485.0609,0.008189
3486.9245,0.007975
3488.7882,0.007196
3490.6519,0.007198
3492.5156,0.007156
3494.3792,0.006661
3496.2429,0.006209
3498.1066,0.005559
3499.9702,0.005384
3501.8339,0.005929
3503.6976,0.006261
3505.5612,0.006428
3507.4249,0.005567
3509.2886,0.004745
3511.1522,0.004203
3513.0159,0.004638
3514.8796,0.004776
3516.7432,0.004440
3518.6069,0.004844
3520.4706,0.004476
3522.3343,0.004158
3524.1979,0.004199
3526.0616,0.004496
3527.9253,0.003912
3529.7889,0.003042
3531.6526,0.003120
3533.5163,0.003591
3535.3799,0.003674
3537.2436,0.003211
3539.1073,0.003152
3540.9709,0.003042
3542.8346,0.002683
3544.6983,0.002519
3546.5620,0.002974
3548.4256,0.002897
3550.2893,0.001754
3552.1530,0.001214
3554.0166,0.001651
3555.8803,0.002071
3557.7440,0.001993
3559.6076,0.001543
3561.4713,0.001185
3563.3350,0.000957
3565.1986,0.000657
3567.0623,0.000324
3568.9260,0.000550
3570.7896,0.000553
3572.6533,0.000402
3574.5170,0.000220
3576.3807,-0.000105
3578.2443,-0.000285
3580.1080,0.000336
3581.9717,0.000539
3583.8353,-0.000344
3585.6990,-0.001334
3587.5627,-0.000780
3589.4263,-0.000718
3591.2900,-0.001753
3593.1537,-0.002077
3595.0173,-0.001949
3596.8810,-0.001880
3598.7447,-0.001870
3600.6084,-0.002044
3602.4720,-0.001785
3604.3357,-0.002093
3606.1994,-0.002699
3608.0630,-0.002557
3609.9267,-0.002499
3611.7904,-0.002905
3613.6540,-0.003368
3615.5177,-0.003491
3617.3814,-0.003518
3619.2450,-0.003721
3621.1087,-0.003923
3622.9724,-0.004330
3624.8360,-0.004190
3626.6997,-0.003998
3628.5634,-0.004465
3630.4271,-0.004686
3632.2907,-0.005309
3634.1544,-0.005727
3636.0181,-0.005705
3637.8817,-0.005955
3639.7454,-0.005927
3641.6091,-0.005707
3643.4727,-0.005462
3645.3364,-0.005420
3647.2001,-0.005676
3649.0637,-0.006304
3650.9274,-0.007104
3652.7911,-0.007221
3654.6547,-0.007456
3656.5184,-0.007330
3658.3821,-0.007181
3660.2458,-0.007572
3662.1094,-0.007663
3663.9731,-0.007407
3665.8368,-0.006950
3667.7004,-0.007430
3669.5641,-0.008207
3671.4278,-0.008365
3673.2914,-0.008114
3675.1551,-0.008690
3677.0188,-0.009176
3678.8824,-0.009004
3680.7461,-0.008575
3682.6098,-0.008330
3684.4735,-0.008463
3686.3371,-0.009091
3688.2008,-0.009222
3690.0645,-0.008574
3691.9281,-0.008733
3693.7918,-0.008911
3695.6555,-0.009079
3697.5191,-0.009121
3699.3828,-0.008846
3701.2465,-0.008906
3703.1101,-0.009123
3704.9738,-0.009078
3706.8375,-0.008925
3708.7011,-0.009293
3710.5648,-0.009898
3712.4285,-0.009596
3714.2922,-0.009172
3716.1558,-0.009002
3718.0195,-0.009285
3719.8832,-0.009097
3721.7468,-0.008798
3723.6105,-0.009006
3725.4742,-0.009497
3727.3378,-0.009617
3729.2015,-0.009073
3731.0652,-0.008912
3732.9288,-0.009227
3734.7925,-0.009061
3736.6562,-0.008781
3738.5199,-0.008930
3740.3835,-0.009319
3742.2472,-0.009369
3744.1109,-0.009794
3745.9745,-0.009778
3747.8382,-0.009653
3749.7019,-0.009911
3751.5655,-0.010145
3753.4292,-0.010038
3755.2929,-0.009421
3757.1565,-0.009067
3759.0202,-0.009097
3760.8839,-0.009406
3762.7475,-0.009506
3764.6112,-0.009479
3766.4749,-0.009467
3768.3386,-0.009682
3770.2022,-0.009782
3772.0659,-0.009674
3773.9296,-0.009052
3775.7932,-0.008998
3777.6569,-0.009280
3779.5206,-0.009557
3781.3842,-0.009558
3783.2479,-0.009327
3785.1116,-0.009334
3786.9752,-0.009555
3788.8389,-0.009514
3790.7026,-0.009115
3792.5662,-0.008867
3794.4299,-0.009133
3796.2936,-0.009265
3798.1573,-0.009298
3800.0209,-0.009423
3801.8846,-0.009679
3803.7483,-0.009901
3805.6119,-0.009769
3807.4756,-0.009791
3809.3393,-0.009602
3811.2029,-0.009046
3813.0666,-0.008836
3814.9303,-0.008886
3816.7939,-0.008964
3818.6576,-0.009256
3820.5213,-0.009740
3822.3850,-0.009904
3824.2486,-0.009412
3826.1123,-0.009206
3827.9760,-0.009472
3829.8396,-0.009368
3831.7033,-0.008854
3833.5670,-0.008784
3835.4306,-0.009158
3837.2943,-0.009314
3839.1580,-0.009544
3841.0216,-0.009654
3842.8853,-0.009568
3844.7490,-0.009575
3846.6126,-0.009821
3848.4763,-0.009568
3850.3400,-0.009035
3852.2037,-0.008860
3854.0673,-0.009678
3855.9310,-0.010260
3857.7947,-0.009692
3859.6583,-0.009218
3861.5220,-0.009166
3863.3857,-0.009270
3865.2493,-0.009261
3867.1130,-0.008735
3868.9767,-0.009330
3870.8403,-0.010002
3872.7040,-0.010007
3874.5677,-0.009799
3876.4314,-0.009374
3878.2950,-0.008869
3880.1587,-0.008995
3882.0224,-0.009316
3883.8860,-0.009281
3885.7497,-0.009170
3887.6134,-0.009197
3889.4770,-0.009498
3891.3407,-0.009683
3893.2044,-0.009186
3895.0680,-0.008674
3896.9317,-0.008800
3898.7954,-0.009203
3900.6590,-0.009179
3902.5227,-0.009097
3904.3864,-0.009031
3906.2501,-0.009209
3908.1137,-0.009478
3909.9774,-0.009381
3911.8411,-0.008991
3913.7047,-0.009034
3915.5684,-0.008908
3917.4321,-0.008650
3919.2957,-0.009248
3921.1594,-0.009544
3923.0231,-0.009339
3924.8867,-0.009335
3926.7504,-0.008951
3928.6141,-0.009033
3930.4777,-0.009448
3932.3414,-0.009336
3934.2051,-0.009008
3936.0688,-0.009033
3937.9324,-0.009012
3939.7961,-0.009118
3941.6598,-0.009140
3943.5234,-0.009110
3945.3871,-0.009062
3947.2508,-0.008898
3949.1144,-0.008852
3950.9781,-0.009347
3952.8418,-0.009607
3954.7054,-0.009441
3956.5691,-0.008889
3958.4328,-0.008730
3960.2965,-0.009226
3962.1601,-0.009369
3964.0238,-0.009075
3965.8875,-0.009118
3967.7511,-0.009097
3969.6148,-0.008839
3971.4785,-0.008448
3973.3421,-0.008569
3975.2058,-0.008989
3977.0695,-0.008938
3978.9331,-0.008634
3980.7968,-0.008753
3982.6605,-0.008993
3984.5241,-0.009079
3986.3878,-0.008773
3988.2515,-0.008641
3990.1152,-0.008734
3991.9788,-0.008927
3993.8425,-0.009082
3995.7062,-0.009088
3997.5698,-0.008965
3999.4335,-0.009188
