Wavenumber,Intensity
650.4205,0.055901
652.2841,0.052518
654.1478,0.051800
656.0115,0.054467
657.8751,0.056788
659.7388,0.056142
661.6025,0.054285
663.4661,0.053050
665.3298,0.052655
667.1935,0.053659
669.0571,0.054790
670.9208,0.053148
672.7845,0.052583
674.6481,0.052664
676.5118,0.051498
678.3755,0.049577
680.2392,0.049510
682.1028,0.050315
683.9665,0.049165
685.8302,0.047368
687.6938,0.047618
689.5575,0.047960
691.4212,0.047388
693.2848,0.047491
695.1485,0.047326
697.0122,0.047003
698.8758,0.046408
700.7395,0.045671
702.6032,0.045824
704.4669,0.045992
706.3305,0.045504
708.1942,0.044480
710.0579,0.043405
711.9215,0.042661
713.7852,0.042713
715.6489,0.042676
717.5125,0.041720
719.3762,0.041446
721.2399,0.041676
723.1035,0.040779
724.9672,0.039784
726.8309,0.039466
728.6945,0.039232
730.5582,0.038940
732.4219,0.038296
734.2856,0.038215
736.1492,0.038354
738.0129,0.037462
739.8766,0.036989
741.7402,0.037398
743.6039,0.037978
745.4676,0.038009
747.3312,0.037380
749.1949,0.037026
751.0586,0.036540
752.9222,0.035973
754.7859,0.036082
756.6496,0.035953
758.5132,0.035396
760.3769,0.035179
762.2406,0.035093
764.1043,0.034724
765.9679,0.034417
767.8316,0.034205
769.6953,0.033991
771.5589,0.034017
773.4226,0.033840
775.2863,0.033476
777.1499,0.033281
779.0136,0.033188
780.8773,0.032819
782.7409,0.032022
784.6046,0.031420
786.4683,0.031306
788.3320,0.031241
790.1956,0.031052
792.0593,0.030778
793.9230,0.030087
795.7866,0.029487
797.6503,0.029577
799.5140,0.029744
801.3776,0.029603
803.2413,0.029356
805.1050,0.029171
806.9686,0.028692
808.8323,0.028254
810.6960,0.028183
812.5596,0.028159
814.4233,0.028230
816.2870,0.028100
818.1507,0.027869
820.0143,0.027867
821.8780,0.027635
823.7417,0.026900
825.6053,0.026269
827.4690,0.026232
829.3327,0.026260
831.1963,0.025948
833.0600,0.025373
834.9237,0.025123
836.7873,0.025297
838.6510,0.025134
840.5147,0.024735
842.3784,0.024552
844.2420,0.024398
846.1057,0.024204
847.9694,0.024314
849.8330,0.024417
851.6967,0.024171
853.5604,0.024113
855.4240,0.024241
857.2877,0.024198
859.1514,0.024052
861.0150,0.024275
862.8787,0.024578
864.7424,0.024679
866.6060,0.024770
868.4697,0.024954
870.3334,0.025001
872.1971,0.024899
874.0607,0.024866
875.9244,0.024820
877.7881,0.024641
879.6517,0.024428
881.5154,0.024073
883.3791,0.023676
885.2427,0.023432
887.1064,0.023308
888.9701,0.023157
890.8337,0.023122
892.6974,0.023121
894.5611,0.023010
896.4247,0.022976
898.2884,0.023044
900.1521,0.023173
902.0158,0.023171
903.8794,0.022972
905.7431,0.022970
907.6068,0.023097
909.4704,0.023296
911.3341,0.023505
913.1978,0.023572
915.0614,0.023789
916.9251,0.024157
918.7888,0.024483
920.6524,0.024705
922.5161,0.024873
924.3798,0.025028
926.2435,0.025122
928.1071,0.025248
929.9708,0.025323
931.8345,0.025323
933.6981,0.025434
935.5618,0.025593
937.4255,0.025664
939.2891,0.025823
941.1528,0.025949
943.0165,0.026065
944.8801,0.026222
946.7438,0.026330
948.6075,0.026325
950.4711,0.026195
952.3348,0.026131
954.1985,0.026183
956.0622,0.026326
957.9258,0.026606
959.7895,0.027087
961.6532,0.027745
963.5168,0.028372
965.3805,0.028903
967.2442,0.029311
969.1078,0.029596
970.9715,0.029864
972.8352,0.030053
974.6988,0.030349
976.5625,0.030858
978.4262,0.031320
980.2899,0.031775
982.1535,0.032308
984.0172,0.032779
985.8809,0.033020
987.7445,0.033107
989.6082,0.033127
991.4719,0.033142
993.3355,0.033328
995.1992,0.033696
997.0629,0.034082
998.9265,0.034491
1000.7902,0.034918
1002.6539,0.035339
1004.5175,0.035822
1006.3812,0.036422
1008.2449,0.037089
1010.1086,0.037863
1011.9722,0.038940
1013.8359,0.040186
1015.6996,0.041311
1017.5632,0.042478
1019.4269,0.043686
1021.2906,0.044756
1023.1542,0.045741
1025.0179,0.046584
1026.8816,0.047237
1028.7452,0.047811
1030.6089,0.048361
1032.4726,0.048833
1034.3362,0.049184
1036.1999,0.049432
1038.0636,0.049522
1039.9273,0.049507
1041.7909,0.049465
1043.6546,0.049381
1045.5183,0.049305
1047.3819,0.049313
1049.2456,0.049325
1051.1093,0.049468
1052.9729,0.049679
1054.8366,0.049886
1056.7003,0.050083
1058.5639,0.050187
1060.4276,0.050280
1062.2913,0.050316
1064.1550,0.050356
1066.0186,0.050511
1067.8823,0.050645
1069.7460,0.050525
1071.6096,0.050265
1073.4733,0.049934
1075.3370,0.049434
1077.2006,0.048663
1079.0643,0.047602
1080.9280,0.046397
1082.7916,0.045031
1084.6553,0.043627
1086.5190,0.042313
1088.3826,0.041190
1090.2463,0.040250
1092.1100,0.039516
1093.9737,0.038805
1095.8373,0.038219
1097.7010,0.037864
1099.5647,0.037512
1101.4283,0.037246
1103.2920,0.037134
1105.1557,0.037018
1107.0193,0.036956
1108.8830,0.037050
1110.7467,0.037266
1112.6103,0.037506
1114.4740,0.037612
1116.3377,0.037499
1118.2014,0.037395
1120.0650,0.037309
1121.9287,0.037062
1123.7924,0.036770
1125.6560,0.036544
1127.5197,0.036324
1129.3834,0.036069
1131.2470,0.035774
1133.1107,0.035363
1134.9744,0.034756
1136.8380,0.034021
1138.7017,0.033405
1140.5654,0.032938
1142.4290,0.032521
1144.2927,0.032207
1146.1564,0.032121
1148.0201,0.032118
1149.8837,0.032003
1151.7474,0.031896
1153.6111,0.031879
1155.4747,0.031823
1157.3384,0.031626
1159.2021,0.031379
1161.0657,0.031142
1162.9294,0.030804
1164.7931,0.030368
1166.6567,0.029899
1168.5204,0.029368
1170.3841,0.028722
1172.2477,0.027973
1174.1114,0.027206
1175.9751,0.026427
1177.8388,0.025749
1179.7024,0.025322
1181.5661,0.025074
1183.4298,0.024901
1185.2934,0.024960
1187.1571,0.025146
1189.0208,0.025344
1190.8844,0.025611
1192.7481,0.025893
1194.6118,0.026224
1196.4754,0.026620
1198.3391,0.026998
1200.2028,0.027399
1202.0665,0.027845
1203.9301,0.028230
1205.7938,0.028528
1207.6575,0.028775
1209.5211,0.029027
1211.3848,0.029201
1213.2485,0.029355
1215.1121,0.029626
1216.9758,0.029977
1218.8395,0.030320
1220.7031,0.030619
1222.5668,0.031065
1224.4305,0.031585
1226.2941,0.031949
1228.1578,0.032254
1230.0215,0.032636
1231.8852,0.032942
1233.7488,0.033119
1235.6125,0.033163
1237.4762,0.033168
1239.3398,0.033151
1241.2035,0.033031
1243.0672,0.032800
1244.9308,0.032583
1246.7945,0.032295
1248.6582,0.031956
1250.5218,0.031570
1252.3855,0.031158
1254.2492,0.030788
1256.1129,0.030442
1257.9765,0.030109
1259.8402,0.029732
1261.7039,0.029408
1263.5675,0.029240
1265.4312,0.029116
1267.2949,0.028957
1269.1585,0.028866
1271.0222,0.028863
1272.8859,0.028787
1274.7495,0.028590
1276.6132,0.028452
1278.4769,0.028402
1280.3405,0.028393
1282.2042,0.028325
1284.0679,0.028275
1285.9316,0.028307
1287.7952,0.028257
1289.6589,0.028236
1291.5226,0.028235
1293.3862,0.028255
1295.2499,0.028445
1297.1136,0.028597
1298.9772,0.028677
1300.8409,0.028806
1302.7046,0.029031
1304.5682,0.029239
1306.4319,0.029410
1308.2956,0.029623
1310.1592,0.029808
1312.0229,0.029920
1313.8866,0.029956
1315.7503,0.029930
1317.6139,0.029979
1319.4776,0.029975
1321.3413,0.029615
1323.2049,0.029333
1325.0686,0.029219
1326.9323,0.029068
1328.7959,0.028959
1330.6596,0.028938
1332.5233,0.028801
1334.3869,0.028721
1336.2506,0.028814
1338.1143,0.029105
1339.9780,0.029426
1341.8416,0.029280
1343.7053,0.029096
1345.5690,0.028996
1347.4326,0.028886
1349.2963,0.028923
1351.1600,0.028946
1353.0236,0.028933
1354.8873,0.028870
1356.7510,0.028792
1358.6146,0.028892
1360.4783,0.029511
1362.3420,0.030478
1364.2056,0.030875
1366.0693,0.031064
1367.9330,0.031635
1369.7967,0.032055
1371.6603,0.032551
1373.5240,0.033614
1375.3877,0.034347
1377.2513,0.034471
1379.1150,0.034672
1380.9787,0.034770
1382.8423,0.034808
1384.7060,0.035095
1386.5697,0.035728
1388.4333,0.035827
1390.2970,0.035331
1392.1607,0.035370
1394.0244,0.036043
1395.8880,0.036483
1397.7517,0.036689
1399.6154,0.036829
1401.4790,0.036381
1403.3427,0.036169
1405.2064,0.036270
1407.0700,0.035799
1408.9337,0.035233
1410.7974,0.034779
1412.6610,0.034112
1414.5247,0.033551
1416.3884,0.033529
1418.2520,0.034256
1420.1157,0.034122
1421.9794,0.033214
1423.8431,0.032890
1425.7067,0.032744
1427.5704,0.032999
1429.4341,0.033739
1431.2977,0.033987
1433.1614,0.034150
1435.0251,0.035451
1436.8887,0.037321
1438.7524,0.037205
1440.6161,0.036758
1442.4797,0.036826
1444.3434,0.036892
1446.2071,0.037304
1448.0707,0.037604
1449.9344,0.037086
1451.7981,0.036124
1453.6618,0.035665
1455.5254,0.036668
1457.3891,0.037771
1459.2528,0.035734
1461.1164,0.033787
1462.9801,0.033148
1464.8438,0.033187
1466.7074,0.032109
1468.5711,0.030749
1470.4348,0.030296
1472.2984,0.030492
1474.1621,0.029952
1476.0258,0.028979
1477.8895,0.028207
1479.7531,0.027876
1481.6168,0.027883
1483.4805,0.027733
1485.3441,0.028050
1487.2078,0.029348
1489.0715,0.031193
1490.9351,0.032264
1492.7988,0.032290
1494.6625,0.033418
1496.5261,0.036053
1498.3898,0.037840
1500.2535,0.038134
1502.1171,0.038143
1503.9808,0.039438
1505.8445,0.044303
1507.7082,0.048432
1509.5718,0.047592
1511.4355,0.047670
1513.2992,0.048309
1515.1628,0.049408
1517.0265,0.050665
1518.8902,0.051343
1520.7538,0.052968
1522.6175,0.053878
1524.4812,0.053837
1526.3448,0.054513
1528.2085,0.054285
1530.0722,0.054210
1531.9359,0.055000
1533.7995,0.055600
1535.6632,0.054580
1537.5269,0.054571
1539.3905,0.056793
1541.2542,0.057920
1543.1179,0.056560
1544.9815,0.055146
1546.8452,0.053733
1548.7089,0.052710
1550.5725,0.051511
1552.4362,0.050003
1554.2999,0.048417
1556.1635,0.047756
1558.0272,0.049169
1559.8909,0.048538
1561.7546,0.045322
1563.6182,0.043509
1565.4819,0.042377
1567.3456,0.041700
1569.2092,0.041331
1571.0729,0.039912
1572.9366,0.038719
1574.8002,0.039077
1576.6639,0.039466
1578.5276,0.038503
1580.3912,0.037645
1582.2549,0.037392
1584.1186,0.037755
1585.9822,0.038109
1587.8459,0.038553
1589.7096,0.039276
1591.5733,0.040229
1593.4369,0.041261
1595.3006,0.042333
1597.1643,0.043420
1599.0279,0.044611
1600.8916,0.045927
1602.7553,0.047492
1604.6189,0.048990
1606.4826,0.050641
1608.3463,0.052655
1610.2099,0.054226
1612.0736,0.055528
1613.9373,0.057225
1615.8010,0.060105
1617.6646,0.062288
1619.5283,0.062462
1621.3920,0.063340
1623.2556,0.065459
1625.1193,0.066456
1626.9830,0.066828
1628.8466,0.066965
1630.7103,0.066487
1632.5740,0.066459
1634.4376,0.068019
1636.3013,0.068844
1638.1650,0.066881
1640.0286,0.065134
1641.8923,0.063907
1643.7560,0.063051
1645.6197,0.062864
1647.4833,0.061525
1649.3470,0.059476
1651.2107,0.059042
1653.0743,0.059530
1654.9380,0.056771
1656.8017,0.054164
1658.6653,0.052003
1660.5290,0.050239
1662.3927,0.048488
1664.2563,0.046461
1666.1200,0.044577
1667.9837,0.043337
1669.8474,0.041878
1671.7110,0.039881
1673.5747,0.038020
1675.4384,0.036134
1677.3020,0.033821
1679.1657,0.031685
1681.0294,0.029795
1682.8930,0.028434
1684.7567,0.026431
1686.6204,0.024045
1688.4840,0.021849
1690.3477,0.019601
1692.2114,0.017383
1694.0750,0.015402
1695.9387,0.013257
1697.8024,0.011544
1699.6661,0.010038
1701.5297,0.008348
1703.3934,0.007088
1705.2571,0.006086
1707.1207,0.004949
1708.9844,0.004005
1710.8481,0.003346
1712.7117,0.003042
1714.5754,0.002572
1716.4391,0.002135
1718.3027,0.001983
1720.1664,0.001790
1722.0301,0.001409
1723.8937,0.001089
1725.7574,0.000627
1727.6211,0.000114
1729.4848,0.000061
1731.3484,0.000349
1733.2121,0.000091
1735.0758,-0.000148
1736.9394,-0.000356
1738.8031,-0.000604
1740.6668,-0.000866
1742.5304,-0.001041
1744.3941,-0.001148
1746.2578,-0.001351
1748.1214,-0.001616
1749.9851,-0.001848
1751.8488,-0.002136
1753.7125,-0.002464
1755.5761,-0.002905
1757.4398,-0.003078
1759.3035,-0.003177
1761.1671,-0.003474
1763.0308,-0.003607
1764.8945,-0.003612
1766.7581,-0.003683
1768.6218,-0.003509
1770.4855,-0.003529
1772.3491,-0.003843
1774.2128,-0.003866
1776.0765,-0.003902
1777.9401,-0.003934
1779.8038,-0.003871
1781.6675,-0.003725
1783.5312,-0.003870
1785.3948,-0.004014
1787.2585,-0.003909
1789.1222,-0.003828
1790.9858,-0.003947
1792.8495,-0.003934
1794.7132,-0.003961
1796.5768,-0.004157
1798.4405,-0.004191
1800.3042,-0.004078
1802.1678,-0.004152
1804.0315,-0.004199
1805.8952,-0.004208
1807.7589,-0.004359
1809.6225,-0.004348
1811.4862,-0.004265
1813.3499,-0.004356
1815.2135,-0.004426
1817.0772,-0.004200
1818.9409,-0.004059
1820.8045,-0.004072
1822.6682,-0.003992
1824.5319,-0.003967
1826.3955,-0.003647
1828.2592,-0.003752
1830.1229,-0.004159
1831.9865,-0.003899
1833.8502,-0.003920
1835.7139,-0.004240
1837.5776,-0.004113
1839.4412,-0.004092
1841.3049,-0.004157
1843.1686,-0.003865
1845.0322,-0.003411
1846.8959,-0.003247
1848.7596,-0.003429
1850.6232,-0.003890
1852.4869,-0.004087
1854.3506,-0.004039
1856.2142,-0.003888
1858.0779,-0.003822
1859.9416,-0.003869
1861.8052,-0.003722
1863.6689,-0.003724
1865.5326,-0.003794
1867.3963,-0.003573
1869.2599,-0.003242
1871.1236,-0.003457
1872.9873,-0.003893
1874.8509,-0.003896
1876.7146,-0.003635
1878.5783,-0.003351
1880.4419,-0.003185
1882.3056,-0.003482
1884.1693,-0.003563
1886.0329,-0.003196
1887.8966,-0.003085
1889.7603,-0.003205
1891.6240,-0.003361
1893.4876,-0.003881
1895.3513,-0.003918
1897.2150,-0.003617
1899.0786,-0.003641
1900.9423,-0.003238
1902.8060,-0.002807
1904.6696,-0.002931
1906.5333,-0.003058
1908.3970,-0.003191
1910.2606,-0.003101
1912.1243,-0.003180
1913.9880,-0.003348
1915.8516,-0.003009
1917.7153,-0.002577
1919.5790,-0.003076
1921.4427,-0.003316
1923.3063,-0.003056
1925.1700,-0.002884
1927.0337,-0.003107
1928.8973,-0.002813
1930.7610,-0.002791
1932.6247,-0.002929
1934.4883,-0.002386
1936.3520,-0.002645
1938.2157,-0.002949
1940.0793,-0.002108
1941.9430,-0.002006
1943.8067,-0.002210
1945.6704,-0.002171
1947.5340,-0.001977
1949.3977,-0.001525
1951.2614,-0.001459
1953.1250,-0.001368
1954.9887,-0.001455
1956.8524,-0.001564
1958.7160,-0.001482
1960.5797,-0.001752
1962.4434,-0.001560
1964.3070,-0.000956
1966.1707,-0.000261
1968.0344,0.000005
1969.8980,-0.000659
1971.7617,-0.000504
1973.6254,0.000345
1975.4891,0.000622
1977.3527,0.000518
1979.2164,0.000206
1981.0801,0.000291
1982.9437,-0.000218
1984.8074,-0.000974
1986.6711,-0.001532
1988.5347,-0.001532
1990.3984,-0.000601
1992.2621,-0.000612
1994.1257,-0.000691
1995.9894,-0.000422
1997.8531,-0.000273
1999.7167,-0.000189
2001.5804,-0.000010
2003.4441,0.000695
2005.3078,-0.000101
2007.1714,-0.000901
2009.0351,-0.000148
2010.8988,0.000492
2012.7624,0.000294
2014.6261,0.000284
2016.4898,-0.000310
2018.3534,-0.001070
2020.2171,-0.000105
2022.0808,0.001081
2023.9444,0.000822
2025.8081,0.000856
2027.6718,0.001398
2029.5355,0.000643
2031.3991,0.000022
2033.2628,0.000611
2035.1265,0.001621
2036.9901,0.001907
2038.8538,0.001223
2040.7175,0.000771
2042.5811,0.001268
2044.4448,0.001783
2046.3085,0.001868
2048.1721,0.002284
2050.0358,0.001766
2051.8995,0.000557
2053.7631,0.000634
2055.6268,0.000669
2057.4905,-0.000102
2059.3542,-0.000429
2061.2178,0.000023
2063.0815,-0.000050
2064.9452,-0.000243
2066.8088,0.000221
2068.6725,0.000283
2070.5362,0.000525
2072.3998,0.000669
2074.2635,0.000228
2076.1272,-0.000208
2077.9908,-0.000371
2079.8545,-0.000497
2081.7182,-0.000431
2083.5819,-0.000167
2085.4455,-0.000288
2087.3092,-0.000683
2089.1729,-0.001296
2091.0365,-0.001665
2092.9002,-0.001480
2094.7639,-0.001111
2096.6275,-0.000983
2098.4912,-0.001103
2100.3549,-0.000770
2102.2185,-0.000487
2104.0822,-0.000606
2105.9459,-0.000725
2107.8095,-0.000448
2109.6732,0.000160
2111.5369,0.000084
2113.4006,-0.000384
2115.2642,-0.000415
2117.1279,-0.000730
2118.9916,-0.001255
2120.8552,-0.001179
2122.7189,-0.001311
2124.5826,-0.001749
2126.4462,-0.001815
2128.3099,-0.002290
2130.1736,-0.002428
2132.0372,-0.001624
2133.9009,-0.001237
2135.7646,-0.000919
2137.6282,-0.000778
2139.4919,-0.000648
2141.3556,-0.000478
2143.2193,-0.000854
2145.0829,-0.000594
2146.9466,0.000022
2148.8103,0.000013
2150.6739,-0.000330
2152.5376,-0.000197
2154.4013,-0.000137
2156.2649,0.000048
2158.1286,0.002049
2159.9923,0.003975
2161.8559,0.004160
2163.7196,0.003978
2165.5833,0.003112
2167.4470,0.002116
2169.3106,0.002680
2171.1743,0.003442
2173.0380,0.002642
2174.9016,0.001700
2176.7653,0.002525
2178.6290,0.003007
2180.4926,0.002229
2182.3563,0.001407
2184.2200,0.000737
2186.0836,0.001193
2187.9473,0.001857
2189.8110,0.001340
2191.6746,0.000782
2193.5383,0.000464
2195.4020,0.000542
2197.2657,0.001245
2199.1293,0.001991
2200.9930,0.002137
2202.8567,0.001216
2204.7203,0.000586
2206.5840,0.000707
2208.4477,0.000893
2210.3113,0.000985
2212.1750,0.000597
2214.0387,0.000120
2215.9023,0.000238
2217.7660,0.000665
2219.6297,0.000789
2221.4934,0.000852
2223.3570,0.000811
2225.2207,0.000787
2227.0844,0.000623
2228.9480,0.000020
2230.8117,-0.000462
2232.6754,-0.000262
2234.5390,0.000332
2236.4027,0.000379
2238.2664,0.000185
2240.1300,0.000218
2241.9937,0.000430
2243.8574,0.000643
2245.7210,0.000716
2247.5847,0.000540
2249.4484,0.000224
2251.3121,0.000127
2253.1757,0.000124
2255.0394,0.000201
2256.9031,0.000170
2258.7667,-0.000144
2260.6304,-0.000636
2262.4941,-0.000721
2264.3577,-0.000481
2266.2214,-0.000602
2268.0851,-0.000558
2269.9487,-0.000030
2271.8124,0.000206
2273.6761,-0.000035
2275.5397,0.000201
2277.4034,0.000479
2279.2671,0.000127
2281.1308,0.000018
2282.9944,0.000185
2284.8581,0.000112
2286.7218,0.000053
2288.5854,0.000132
2290.4491,-0.000068
2292.3128,-0.000648
2294.1764,-0.001024
2296.0401,-0.000805
2297.9038,-0.000755
2299.7674,-0.001207
2301.6311,-0.001039
2303.4948,-0.000808
2305.3585,-0.001256
2307.2221,-0.001593
2309.0858,-0.001468
2310.9495,-0.001096
2312.8131,-0.000649
2314.6768,-0.000669
2316.5405,-0.001265
2318.4041,-0.001422
2320.2678,-0.000741
2322.1315,-0.000390
2323.9951,-0.000728
2325.8588,-0.001228
2327.7225,-0.001795
2329.5861,-0.002093
2331.4498,-0.002048
2333.3135,-0.001698
2335.1772,-0.001374
2337.0408,-0.001482
2338.9045,-0.001656
2340.7682,-0.001402
2342.6318,-0.001340
2344.4955,-0.001378
2346.3592,-0.001407
2348.2228,-0.001956
2350.0865,-0.002563
2351.9502,-0.002795
2353.8138,-0.002385
2355.6775,-0.001864
2357.5412,-0.001728
2359.4049,-0.001272
2361.2685,-0.000899
2363.1322,-0.000954
2364.9959,-0.001141
2366.8595,-0.001387
2368.7232,-0.000918
2370.5869,-0.000599
2372.4505,-0.001107
2374.3142,-0.001462
2376.1779,-0.001665
2378.0415,-0.001667
2379.9052,-0.001467
2381.7689,-0.001594
2383.6325,-0.001977
2385.4962,-0.001950
2387.3599,-0.001699
2389.2236,-0.001771
2391.0872,-0.001921
2392.9509,-0.002126
2394.8146,-0.002116
2396.6782,-0.001925
2398.5419,-0.001711
2400.4056,-0.001574
2402.2692,-0.001597
2404.1329,-0.001563
2405.9966,-0.001391
2407.8602,-0.001155
2409.7239,-0.001180
2411.5876,-0.001204
2413.4512,-0.001100
2415.3149,-0.001346
2417.1786,-0.001680
2419.0423,-0.001650
2420.9059,-0.001316
2422.7696,-0.001063
2424.6333,-0.001021
2426.4969,-0.001149
2428.3606,-0.001335
2430.2243,-0.001304
2432.0879,-0.001158
2433.9516,-0.001137
2435.8153,-0.000800
2437.6789,-0.000645
2439.5426,-0.000986
2441.4063,-0.000947
2443.2700,-0.000730
2445.1336,-0.000615
2446.9973,-0.000427
2448.8610,-0.000381
2450.7246,-0.000683
2452.5883,-0.000807
2454.4520,-0.000785
2456.3156,-0.000632
2458.1793,-0.000248
2460.0430,-0.000302
2461.9066,-0.000453
2463.7703,-0.000430
2465.6340,-0.000480
2467.4976,-0.000566
2469.3613,-0.000658
2471.2250,-0.000851
2473.0887,-0.000998
2474.9523,-0.000965
2476.8160,-0.000696
2478.6797,-0.000433
2480.5433,-0.000385
2482.4070,-0.000323
2484.2707,-0.000169
2486.1343,-0.000427
2487.9980,-0.000774
2489.8617,-0.000545
2491.7253,-0.000286
2493.5890,-0.000205
2495.4527,-0.000191
2497.3164,-0.000351
2499.1800,-0.000406
2501.0437,-0.000438
2502.9074,-0.000457
2504.7710,-0.000112
2506.6347,-0.000147
2508.4984,-0.000605
2510.3620,-0.000541
2512.2257,-0.000270
2514.0894,-0.000232
2515.9530,-0.000153
2517.8167,-0.000364
2519.6804,-0.000375
2521.5440,-0.000200
2523.4077,-0.000220
2525.2714,-0.000161
2527.1351,0.000034
2528.9987,-0.000133
2530.8624,-0.000526
2532.7261,-0.000314
2534.5897,0.000291
2536.4534,0.000256
2538.3171,0.000207
2540.1807,0.000183
2542.0444,-0.000056
2543.9081,-0.000096
2545.7717,-0.000011
2547.6354,0.000038
2549.4991,0.000014
2551.3627,0.000010
2553.2264,0.000089
2555.0901,0.000264
2556.9538,0.000312
2558.8174,0.000225
2560.6811,0.000307
2562.5448,0.000426
2564.4084,0.000323
2566.2721,0.000356
2568.1358,0.000572
2569.9994,0.000532
2571.8631,0.000635
2573.7268,0.000972
2575.5904,0.001017
2577.4541,0.000765
2579.3178,0.000831
2581.1815,0.000910
2583.0451,0.000754
2584.9088,0.000741
2586.7725,0.001170
2588.6361,0.001336
2590.4998,0.000899
2592.3635,0.000872
2594.2271,0.001089
2596.0908,0.001205
2597.9545,0.001306
2599.8181,0.001045
2601.6818,0.000764
2603.5455,0.001086
2605.4091,0.001434
2607.2728,0.001506
2609.1365,0.001362
2611.0002,0.001278
2612.8638,0.001494
2614.7275,0.001326
2616.5912,0.001373
2618.4548,0.001734
2620.3185,0.001772
2622.1822,0.001894
2624.0458,0.001723
2625.9095,0.001561
2627.7732,0.001787
2629.6368,0.001777
2631.5005,0.001831
2633.3642,0.002059
2635.2279,0.002027
2637.0915,0.001970
2638.9552,0.002023
2640.8189,0.001997
2642.6825,0.002241
2644.5462,0.002303
2646.4099,0.002112
2648.2735,0.002067
2650.1372,0.002298
2652.0009,0.002354
2653.8645,0.002194
2655.7282,0.002131
2657.5919,0.002137
2659.4555,0.002036
2661.3192,0.002095
2663.1829,0.002255
2665.0466,0.002129
2666.9102,0.001939
2668.7739,0.002013
2670.6376,0.002226
2672.5012,0.002336
2674.3649,0.002278
2676.2286,0.002240
2678.0922,0.002296
2679.9559,0.002510
2681.8196,0.002468
2683.6832,0.002421
2685.5469,0.002536
2687.4106,0.002571
2689.2742,0.002666
2691.1379,0.002800
2693.0016,0.002964
2694.8653,0.003008
2696.7289,0.003024
2698.5926,0.003070
2700.4563,0.003108
2702.3199,0.003131
2704.1836,0.003037
2706.0473,0.002894
2707.9109,0.003107
2709.7746,0.003357
2711.6383,0.003339
2713.5019,0.003631
2715.3656,0.003885
2717.2293,0.003740
2719.0930,0.003747
2720.9566,0.003809
2722.8203,0.003833
2724.6840,0.003997
2726.5476,0.004174
2728.4113,0.004329
2730.2750,0.004563
2732.1386,0.004636
2734.0023,0.004492
2735.8660,0.004576
2737.7296,0.004772
2739.5933,0.004855
2741.4570,0.004934
2743.3206,0.005145
2745.1843,0.005216
2747.0480,0.005127
2748.9117,0.005059
2750.7753,0.005090
2752.6390,0.005236
2754.5027,0.005571
2756.3663,0.005720
2758.2300,0.005729
2760.0937,0.005603
2761.9573,0.005762
2763.8210,0.006051
2765.6847,0.006192
2767.5483,0.006246
2769.4120,0.006265
2771.2757,0.006430
2773.1394,0.006451
2775.0030,0.006537
2776.8667,0.006721
2778.7304,0.006854
2780.5940,0.006980
2782.4577,0.006967
2784.3214,0.006947
2786.1850,0.007226
2788.0487,0.007487
2789.9124,0.007644
2791.7760,0.007678
2793.6397,0.007846
2795.5034,0.008073
2797.3670,0.008070
2799.2307,0.008039
2801.0944,0.008103
2802.9581,0.008154
2804.8217,0.008296
2806.6854,0.008581
2808.5491,0.008746
2810.4127,0.008685
2812.2764,0.008802
2814.1401,0.008981
2816.0037,0.009175
2817.8674,0.009575
2819.7311,0.009806
2821.5947,0.009788
2823.4584,0.009743
2825.3221,0.009726
2827.1857,0.009854
2829.0494,0.010170
2830.9131,0.010443
2832.7768,0.010707
2834.6404,0.010924
2836.5041,0.011117
2838.3678,0.011333
2840.2314,0.011505
2842.0951,0.011875
2843.9588,0.012411
2845.8224,0.012843
2847.6861,0.013147
2849.5498,0.013586
2851.4134,0.013946
2853.2771,0.014193
2855.1408,0.014240
2857.0045,0.014319
2858.8681,0.014344
2860.7318,0.014408
2862.5955,0.014675
2864.4591,0.014800
2866.3228,0.014954
2868.1865,0.015170
2870.0501,0.015384
2871.9138,0.015537
2873.7775,0.015496
2875.6411,0.015563
2877.5048,0.015578
2879.3685,0.015377
2881.2321,0.015420
2883.0958,0.015815
2884.9595,0.015851
2886.8232,0.015589
2888.6868,0.015697
2890.5505,0.015802
2892.4142,0.015997
2894.2778,0.016389
2896.1415,0.016733
2898.0052,0.016852
2899.8688,0.016894
2901.7325,0.016914
2903.5962,0.017148
2905.4598,0.017617
2907.3235,0.017977
2909.1872,0.018421
2911.0509,0.018831
2912.9145,0.019128
2914.7782,0.019697
2916.6419,0.020252
2918.5055,0.020309
2920.3692,0.020624
2922.2329,0.021087
2924.0965,0.021056
2925.9602,0.021015
2927.8239,0.021034
2929.6875,0.021071
2931.5512,0.020789
2933.4149,0.020506
2935.2785,0.020347
2937.1422,0.020276
2939.0059,0.020193
2940.8696,0.019977
2942.7332,0.019595
2944.5969,0.019188
2946.4606,0.019063
2948.3242,0.019074
2950.1879,0.019153
2952.0516,0.019642
2953.9152,0.019893
2955.7789,0.019713
2957.6426,0.019624
2959.5062,0.019606
2961.3699,0.019642
2963.2336,0.019576
2965.0972,0.019250
2966.9609,0.019207
2968.8246,0.019051
2970.6883,0.018592
2972.5519,0.018075
2974.4156,0.017940
2976.2793,0.017813
2978.1429,0.017717
2980.0066,0.017459
2981.8703,0.017320
2983.7339,0.017090
2985.5976,0.016892
2987.4613,0.016787
2989.3249,0.016789
2991.1886,0.016881
2993.0523,0.016710
2994.9160,0.016424
2996.7796,0.016495
2998.6433,0.016439
3000.5070,0.016666
3002.3706,0.016729
3004.2343,0.016752
3006.0980,0.016739
3007.9616,0.016977
3009.8253,0.017427
3011.6890,0.017400
3013.5526,0.017423
3015.4163,0.017683
3017.2800,0.017906
3019.1436,0.017935
3021.0073,0.017758
3022.8710,0.018103
3024.7347,0.018422
3026.5983,0.018508
3028.4620,0.018995
3030.3257,0.019693
3032.1893,0.019895
3034.0530,0.019963
3035.9167,0.020035
3037.7803,0.020314
3039.6440,0.020500
3041.5077,0.020703
3043.3713,0.020845
3045.2350,0.020976
3047.0987,0.021247
3048.9624,0.021331
3050.8260,0.021368
3052.6897,0.021443
3054.5534,0.021633
3056.4170,0.022214
3058.2807,0.022474
3060.1444,0.022402
3062.0080,0.022430
3063.8717,0.022618
3065.7354,0.023005
3067.5990,0.023278
3069.4627,0.023209
3071.3264,0.023447
3073.1900,0.023634
3075.0537,0.023624
3076.9174,0.023628
3078.7811,0.023556
3080.6447,0.023432
3082.5084,0.023357
3084.3721,0.023328
3086.2357,0.023216
3088.0994,0.023416
3089.9631,0.023842
3091.8267,0.023894
3093.6904,0.024315
3095.5541,0.024554
3097.4177,0.024199
3099.2814,0.023972
3101.1451,0.024101
3103.0087,0.024123
3104.8724,0.024090
3106.7361,0.024268
3108.5998,0.024441
3110.4634,0.024280
3112.3271,0.024391
3114.1908,0.024706
3116.0544,0.024878
3117.9181,0.025034
3119.7818,0.025161
3121.6454,0.025103
3123.5091,0.025173
3125.3728,0.025458
3127.2364,0.025561
3129.1001,0.025849
3130.9638,0.026321
3132.8275,0.026942
3134.6911,0.027151
3136.5548,0.026879
3138.4185,0.026968
3140.2821,0.027017
3142.1458,0.027222
3144.0095,0.027855
3145.8731,0.028491
3147.7368,0.028646
3149.6005,0.028891
3151.4641,0.028990
3153.3278,0.029136
3155.1915,0.029216
3157.0551,0.029560
3158.9188,0.029838
3160.7825,0.029984
3162.6462,0.030411
3164.5098,0.030990
3166.3735,0.030909
3168.2372,0.031086
3170.1008,0.031314
3171.9645,0.031893
3173.8282,0.032507
3175.6918,0.032683
3177.5555,0.032601
3179.4192,0.032806
3181.2828,0.032893
3183.1465,0.033077
3185.0102,0.033391
3186.8739,0.033967
3188.7375,0.034369
3190.6012,0.034643
3192.4649,0.034709
3194.3285,0.034689
3196.1922,0.034641
3198.0559,0.034946
3199.9195,0.035236
3201.7832,0.035332
3203.6469,0.035522
3205.5105,0.035832
3207.3742,0.036114
3209.2379,0.036277
3211.1015,0.036220
3212.9652,0.036227
3214.8289,0.036190
3216.6926,0.036399
3218.5562,0.036684
3220.4199,0.036864
3222.2836,0.036982
3224.1472,0.036944
3226.0109,0.036932
3227.8746,0.036997
3229.7382,0.037200
3231.6019,0.037524
3233.4656,0.037709
3235.3292,0.037838
3237.1929,0.038068
3239.0566,0.038304
3240.9202,0.038430
3242.7839,0.038896
3244.6476,0.039256
3246.5113,0.039100
3248.3749,0.038700
3250.2386,0.039009
3252.1023,0.039090
3253.9659,0.039335
3255.8296,0.039555
3257.6933,0.039740
3259.5569,0.039956
3261.4206,0.040416
3263.2843,0.040618
3265.1479,0.040360
3267.0116,0.040178
3268.8753,0.040377
3270.7390,0.040377
3272.6026,0.040322
3274.4663,0.040475
3276.3300,0.040393
3278.1936,0.040033
3280.0573,0.039723
3281.9210,0.039448
3283.7846,0.039681
3285.6483,0.040005
3287.5120,0.040084
3289.3756,0.039702
3291.2393,0.039194
3293.1030,0.038799
3294.9666,0.038761
3296.8303,0.038600
3298.6940,0.038503
3300.5577,0.038444
3302.4213,0.038346
3304.2850,0.038307
3306.1487,0.038146
3308.0123,0.037813
3309.8760,0.037440
3311.7397,0.037178
3313.6033,0.036856
3315.4670,0.036221
3317.3307,0.036129
3319.1943,0.036340
3321.0580,0.036203
3322.9217,0.035538
3324.7854,0.035716
3326.6490,0.036125
3328.5127,0.036161
3330.3764,0.035805
3332.2400,0.035436
3334.1037,0.035084
3335.9674,0.035122
3337.8310,0.035344
3339.6947,0.035302
3341.5584,0.035076
3343.4220,0.034701
3345.2857,0.034444
3347.1494,0.034592
3349.0130,0.034309
3350.8767,0.034104
3352.7404,0.033893
3354.6041,0.033393
3356.4677,0.033754
3358.3314,0.034038
3360.1951,0.033484
3362.0587,0.033245
3363.9224,0.033234
3365.7861,0.032934
3367.6497,0.032536
3369.5134,0.032439
3371.3771,0.032511
3373.2407,0.032787
3375.1044,0.032312
3376.9681,0.031963
3378.8317,0.032213
3380.6954,0.031880
3382.5591,0.031295
3384.4228,0.031019
3386.2864,0.030832
3388.1501,0.030557
3390.0138,0.030859
3391.8774,0.031445
3393.7411,0.030778
3395.6048,0.030140
3397.4684,0.030154
3399.3321,0.030163
3401.1958,0.029646
3403.0594,0.029419
3404.9231,0.029511
3406.7868,0.029389
3408.6505,0.029402
3410.5141,0.029359
3412.3778,0.028802
3414.2415,0.028434
3416.1051,0.028527
3417.9688,0.028647
3419.8325,0.028112
3421.6961,0.027691
3423.5598,0.027667
3425.4235,0.027476
3427.2871,0.027150
3429.1508,0.027216
3431.0145,0.027286
3432.8781,0.026993
3434.7418,0.026781
3436.6055,0.026660
3438.4692,0.025986
3440.3328,0.025615
3442.1965,0.026100
3444.0602,0.026333
3445.9238,0.025878
3447.7875,0.025555
3449.6512,0.025126
3451.5148,0.024406
3453.3785,0.024198
3455.2422,0.024334
3457.1058,0.024113
3458.9695,0.023411
3460.8332,0.022917
3462.6969,0.022503
3464.5605,0.021903
3466.4242,0.022183
3468.2879,0.022748
3470.1515,0.023084
3472.0152,0.022470
3473.8789,0.021763
3475.7425,0.021796
3477.6062,0.021292
3479.4699,0.020542
3481.3335,0.020026
3483.1972,0.019943
3485.0609,0.019703
3486.9245,0.019400
3488.7882,0.019373
3490.6519,0.019046
3492.5156,0.018498
3494.3792,0.017951
3496.2429,0.017503
3498.1066,0.017009
3499.9702,0.016610
3501.8339,0.016798
3503.6976,0.017148
3505.5612,0.016797
3507.4249,0.016338
3509.2886,0.015372
3511.1522,0.014761
3513.0159,0.014964
3514.8796,0.014840
3516.7432,0.014593
3518.6069,0.014518
3520.4706,0.014228
3522.3343,0.013333
3524.1979,0.012577
3526.0616,0.012752
3527.9253,0.012567
3529.7889,0.012016
3531.6526,0.012126
3533.5163,0.011769
3535.3799,0.011282
3537.2436,0.011195
3539.1073,0.010833
3540.9709,0.010369
3542.8346,0.009942
3544.6983,0.009360
3546.5620,0.009239
3548.4256,0.009297
3550.2893,0.008513
3552.1530,0.007379
3554.0166,0.006938
3555.8803,0.007217
3557.7440,0.007181
3559.6076,0.006895
3561.4713,0.006549
3563.3350,0.005883
3565.1986,0.005611
3567.0623,0.005793
3568.9260,0.005145
3570.7896,0.004466
3572.6533,0.004379
3574.5170,0.004207
3576.3807,0.003736
3578.2443,0.003722
3580.1080,0.003707
3581.9717,0.003106
3583.8353,0.002680
3585.6990,0.002351
3587.5627,0.001884
3589.4263,0.001818
3591.2900,0.001665
3593.1537,0.001446
3595.0173,0.001054
3596.8810,0.000369
3598.7447,-0.000245
3600.6084,-0.000254
3602.4720,-0.000041
3604.3357,-0.000421
3606.1994,-0.000694
3608.0630,-0.001012
3609.9267,-0.001721
3611.7904,-0.001869
3613.6540,-0.001904
3615.5177,-0.002032
3617.3814,-0.002322
3619.2450,-0.003127
3621.1087,-0.003786
3622.9724,-0.003902
3624.8360,-0.003679
3626.6997,-0.003288
3628.5634,-0.003488
3630.4271,-0.004209
3632.2907,-0.004546
3634.1544,-0.004859
3636.0181,-0.005232
3637.8817,-0.005501
3639.7454,-0.005609
3641.6091,-0.005804
3643.4727,-0.005978
3645.3364,-0.005812
3647.2001,-0.005892
3649.0637,-0.006448
3650.9274,-0.006690
3652.7911,-0.006603
3654.6547,-0.006876
3656.5184,-0.007289
3658.3821,-0.007655
3660.2458,-0.008064
3662.1094,-0.008205
3663.9731,-0.008117
3665.8368,-0.008021
3667.7004,-0.008208
3669.5641,-0.008538
3671.4278,-0.008388
3673.2914,-0.007945
3675.1551,-0.008363
3677.0188,-0.009444
3678.8824,-0.009391
3680.7461,-0.009154
3682.6098,-0.009472
3684.4735,-0.009532
3686.3371,-0.009010
3688.2008,-0.009198
3690.0645,-0.009924
3691.9281,-0.009803
3693.7918,-0.009632
3695.6555,-0.009607
3697.5191,-0.009321
3699.3828,-0.009193
3701.2465,-0.009654
3703.1101,-0.009946
3704.9738,-0.009716
3706.8375,-0.009401
3708.7011,-0.009339
3710.5648,-0.009446
3712.4285,-0.009652
3714.2922,-0.009742
3716.1558,-0.009822
3718.0195,-0.010286
3719.8832,-0.010556
3721.7468,-0.010218
3723.6105,-0.009852
3725.4742,-0.009811
3727.3378,-0.009933
3729.2015,-0.010093
3731.0652,-0.010177
3732.9288,-0.010087
3734.7925,-0.010065
3736.6562,-0.010227
3738.5199,-0.009795
3740.3835,-0.009563
3742.2472,-0.010217
3744.1109,-0.010888
3745.9745,-0.010596
3747.8382,-0.010269
3749.7019,-0.010376
3751.5655,-0.009955
3753.4292,-0.009674
3755.2929,-0.009800
3757.1565,-0.009743
3759.0202,-0.009854
3760.8839,-0.009944
3762.7475,-0.009874
3764.6112,-0.010103
3766.4749,-0.010309
3768.3386,-0.010149
3770.2022,-0.010000
3772.0659,-0.010011
3773.9296,-0.010042
3775.7932,-0.010142
3777.6569,-0.010059
3779.5206,-0.009933
3781.3842,-0.010081
3783.2479,-0.010342
3785.1116,-0.010196
3786.9752,-0.009661
3788.8389,-0.009815
3790.7026,-0.010031
3792.5662,-0.010044
3794.4299,-0.010451
3796.2936,-0.010582
3798.1573,-0.010320
3800.0209,-0.010429
3801.8846,-0.010817
3803.7483,-0.010355
3805.6119,-0.009936
3807.4756,-0.010084
3809.3393,-0.009914
3811.2029,-0.009873
3813.0666,-0.010125
3814.9303,-0.010338
3816.7939,-0.010334
3818.6576,-0.009984
3820.5213,-0.010169
3822.3850,-0.010707
3824.2486,-0.010386
3826.1123,-0.010103
3827.9760,-0.010111
3829.8396,-0.010263
3831.7033,-0.010463
3833.5670,-0.010605
3835.4306,-0.010667
3837.2943,-0.010428
3839.1580,-0.010378
3841.0216,-0.010381
3842.8853,-0.010085
3844.7490,-0.010122
3846.6126,-0.010220
3848.4763,-0.010207
3850.3400,-0.010263
3852.2037,-0.010479
3854.0673,-0.010732
3855.9310,-0.010500
3857.7947,-0.010152
3859.6583,-0.010171
3861.5220,-0.010296
3863.3857,-0.010431
3865.2493,-0.010335
3867.1130,-0.009990
3868.9767,-0.010043
3870.8403,-0.010241
3872.7040,-0.010008
3874.5677,-0.010218
3876.4314,-0.010513
3878.2950,-0.010449
3880.1587,-0.010388
3882.0224,-0.010168
3883.8860,-0.009890
3885.7497,-0.010016
3887.6134,-0.010177
3889.4770,-0.010433
3891.3407,-0.010818
3893.2044,-0.010814
3895.0680,-0.010197
3896.9317,-0.009783
3898.7954,-0.010043
3900.6590,-0.010216
3902.5227,-0.009897
3904.3864,-0.009596
3906.2501,-0.009395
3908.1137,-0.009659
3909.9774,-0.010142
3911.8411,-0.010172
3913.7047,-0.009890
3915.5684,-0.009838
3917.4321,-0.010039
3919.2957,-0.009838
3921.1594,-0.009674
3923.0231,-0.010119
3924.8867,-0.010434
3926.7504,-0.010234
3928.6141,-0.009935
3930.4777,-0.009866
3932.3414,-0.010003
3934.2051,-0.010068
3936.0688,-0.010122
3937.9324,-0.010356
3939.7961,-0.010116
3941.6598,-0.009801
3943.5234,-0.009823
3945.3871,-0.010036
3947.2508,-0.010068
3949.1144,-0.009932
3950.9781,-0.010019
3952.8418,-0.010119
3954.7054,-0.010026
3956.5691,-0.009840
3958.4328,-0.009744
3960.2965,-0.009876
3962.1601,-0.009880
3964.0238,-0.009632
3965.8875,-0.009719
3967.7511,-0.010156
3969.6148,-0.010231
3971.4785,-0.010061
3973.3421,-0.010054
3975.2058,-0.010340
3977.0695,-0.010131
3978.9331,-0.009809
3980.7968,-0.009696
3982.6605,-0.010021
3984.5241,-0.010194
3986.3878,-0.010146
3988.2515,-0.009901
3990.1152,-0.009794
3991.9788,-0.009831
3993.8425,-0.009839
3995.7062,-0.009862
3997.5698,-0.009975
3999.4335,-0.009993
