Wavenumber,Intensity
650.4205,-0.006630
652.2841,-0.006737
654.1478,-0.006875
656.0115,-0.006877
657.8751,-0.006581
659.7388,-0.006748
661.6025,-0.006565
663.4661,-0.005935
665.3298,-0.005628
667.1935,-0.007238
669.0571,-0.008866
670.9208,-0.005891
672.7845,-0.005515
674.6481,-0.005511
676.5118,-0.004756
678.3755,-0.004092
680.2392,-0.004212
682.1028,-0.004271
683.9665,-0.004465
685.8302,-0.004522
687.6938,-0.004327
689.5575,-0.003861
691.4212,-0.003810
693.2848,-0.003747
695.1485,-0.003462
697.0122,-0.003970
698.8758,-0.004335
700.7395,-0.003486
702.6032,-0.003203
704.4669,-0.003127
706.3305,-0.003335
708.1942,-0.003441
710.0579,-0.003161
711.9215,-0.003009
713.7852,-0.003097
715.6489,-0.003065
717.5125,-0.002988
719.3762,-0.002899
721.2399,-0.002978
723.1035,-0.003127
724.9672,-0.003337
726.8309,-0.002904
728.6945,-0.002596
730.5582,-0.002649
732.4219,-0.002735
734.2856,-0.002784
736.1492,-0.002690
738.0129,-0.002625
739.8766,-0.002659
741.7402,-0.002477
743.6039,-0.002441
745.4676,-0.002702
747.3312,-0.002571
749.1949,-0.002330
751.0586,-0.002466
752.9222,-0.002661
754.7859,-0.002812
756.6496,-0.002858
758.5132,-0.002611
760.3769,-0.002350
762.2406,-0.002336
764.1043,-0.002289
765.9679,-0.002193
767.8316,-0.002359
769.6953,-0.002482
771.5589,-0.002479
773.4226,-0.002570
775.2863,-0.002637
777.1499,-0.002530
779.0136,-0.002435
780.8773,-0.002599
782.7409,-0.002875
784.6046,-0.002907
786.4683,-0.002797
788.3320,-0.002768
790.1956,-0.002775
792.0593,-0.002781
793.9230,-0.002791
795.7866,-0.002962
797.6503,-0.002889
799.5140,-0.002767
801.3776,-0.002889
803.2413,-0.002978
805.1050,-0.003025
806.9686,-0.003060
808.8323,-0.003208
810.6960,-0.003279
812.5596,-0.003229
814.4233,-0.003170
816.2870,-0.003186
818.1507,-0.003220
820.0143,-0.003185
821.8780,-0.003101
823.7417,-0.003102
825.6053,-0.003172
827.4690,-0.003229
829.3327,-0.003277
831.1963,-0.003257
833.0600,-0.003213
834.9237,-0.003290
836.7873,-0.003394
838.6510,-0.003426
840.5147,-0.003415
842.3784,-0.003413
844.2420,-0.003362
846.1057,-0.003337
847.9694,-0.003392
849.8330,-0.003427
851.6967,-0.003383
853.5604,-0.003301
855.4240,-0.003197
857.2877,-0.003161
859.1514,-0.003227
861.0150,-0.003329
862.8787,-0.003374
864.7424,-0.003410
866.6060,-0.003424
868.4697,-0.003399
870.3334,-0.003438
872.1971,-0.003481
874.0607,-0.003455
875.9244,-0.003436
877.7881,-0.003488
879.6517,-0.003539
881.5154,-0.003498
883.3791,-0.003465
885.2427,-0.003449
887.1064,-0.003414
888.9701,-0.003414
890.8337,-0.003425
892.6974,-0.003443
894.5611,-0.003418
896.4247,-0.003415
898.2884,-0.003485
900.1521,-0.003527
902.0158,-0.003486
903.8794,-0.003378
905.7431,-0.003266
907.6068,-0.003297
909.4704,-0.003359
911.3341,-0.003324
913.1978,-0.003291
915.0614,-0.003283
916.9251,-0.003282
918.7888,-0.003271
920.6524,-0.003287
922.5161,-0.003244
924.3798,-0.003212
926.2435,-0.003179
928.1071,-0.003171
929.9708,-0.003214
931.8345,-0.003186
933.6981,-0.003124
935.5618,-0.003081
937.4255,-0.003035
939.2891,-0.002991
941.1528,-0.003010
943.0165,-0.003003
944.8801,-0.002978
946.7438,-0.002911
948.6075,-0.002809
950.4711,-0.002768
952.3348,-0.002797
954.1985,-0.002805
956.0622,-0.002777
957.9258,-0.002729
959.7895,-0.002708
961.6532,-0.002681
963.5168,-0.002601
965.3805,-0.002519
967.2442,-0.002516
969.1078,-0.002511
970.9715,-0.002479
972.8352,-0.002418
974.6988,-0.002370
976.5625,-0.002305
978.4262,-0.002220
980.2899,-0.002185
982.1535,-0.002172
984.0172,-0.002130
985.8809,-0.002060
987.7445,-0.002014
989.6082,-0.001934
991.4719,-0.001876
993.3355,-0.001832
995.1992,-0.001768
997.0629,-0.001727
998.9265,-0.001652
1000.7902,-0.001588
1002.6539,-0.001606
1004.5175,-0.001591
1006.3812,-0.001475
1008.2449,-0.001380
1010.1086,-0.001343
1011.9722,-0.001314
1013.8359,-0.001243
1015.6996,-0.001184
1017.5632,-0.001151
1019.4269,-0.001096
1021.2906,-0.001049
1023.1542,-0.001013
1025.0179,-0.000987
1026.8816,-0.000975
1028.7452,-0.000935
1030.6089,-0.000871
1032.4726,-0.000812
1034.3362,-0.000799
1036.1999,-0.000802
1038.0636,-0.000786
1039.9273,-0.000753
1041.7909,-0.000721
1043.6546,-0.000713
1045.5183,-0.000681
1047.3819,-0.000626
1049.2456,-0.000579
1051.1093,-0.000570
1052.9729,-0.000630
1054.8366,-0.000633
1056.7003,-0.000575
1058.5639,-0.000552
1060.4276,-0.000571
1062.2913,-0.000546
1064.1550,-0.000520
1066.0186,-0.000554
1067.8823,-0.000533
1069.7460,-0.000495
1071.6096,-0.000478
1073.4733,-0.000450
1075.3370,-0.000466
1077.2006,-0.000482
1079.0643,-0.000483
1080.9280,-0.000459
1082.7916,-0.000437
1084.6553,-0.000457
1086.5190,-0.000454
1088.3826,-0.000412
1090.2463,-0.000399
1092.1100,-0.000384
1093.9737,-0.000379
1095.8373,-0.000393
1097.7010,-0.000381
1099.5647,-0.000383
1101.4283,-0.000414
1103.2920,-0.000424
1105.1557,-0.000435
1107.0193,-0.000448
1108.8830,-0.000442
1110.7467,-0.000460
1112.6103,-0.000484
1114.4740,-0.000498
1116.3377,-0.000510
1118.2014,-0.000516
1120.0650,-0.000521
1121.9287,-0.000527
1123.7924,-0.000535
1125.6560,-0.000540
1127.5197,-0.000557
1129.3834,-0.000587
1131.2470,-0.000614
1133.1107,-0.000613
1134.9744,-0.000629
1136.8380,-0.000656
1138.7017,-0.000668
1140.5654,-0.000672
1142.4290,-0.000669
1144.2927,-0.000656
1146.1564,-0.000675
1148.0201,-0.000706
1149.8837,-0.000746
1151.7474,-0.000753
1153.6111,-0.000750
1155.4747,-0.000779
1157.3384,-0.000808
1159.2021,-0.000772
1161.0657,-0.000748
1162.9294,-0.000791
1164.7931,-0.000810
1166.6567,-0.000858
1168.5204,-0.000864
1170.3841,-0.000854
1172.2477,-0.000853
1174.1114,-0.000855
1175.9751,-0.000873
1177.8388,-0.000879
1179.7024,-0.000869
1181.5661,-0.000889
1183.4298,-0.000943
1185.2934,-0.000953
1187.1571,-0.000976
1189.0208,-0.000996
1190.8844,-0.000996
1192.7481,-0.001013
1194.6118,-0.001018
1196.4754,-0.001007
1198.3391,-0.000997
1200.2028,-0.000985
1202.0665,-0.000991
1203.9301,-0.001025
1205.7938,-0.001056
1207.6575,-0.001055
1209.5211,-0.001049
1211.3848,-0.001063
1213.2485,-0.001034
1215.1121,-0.001018
1216.9758,-0.001051
1218.8395,-0.001075
1220.7031,-0.001123
1222.5668,-0.001158
1224.4305,-0.001146
1226.2941,-0.001123
1228.1578,-0.001105
1230.0215,-0.001084
1231.8852,-0.001115
1233.7488,-0.001158
1235.6125,-0.001144
1237.4762,-0.001146
1239.3398,-0.001169
1241.2035,-0.001162
1243.0672,-0.001174
1244.9308,-0.001201
1246.7945,-0.001230
1248.6582,-0.001257
1250.5218,-0.001249
1252.3855,-0.001280
1254.2492,-0.001305
1256.1129,-0.001300
1257.9765,-0.001278
1259.8402,-0.001297
1261.7039,-0.001332
1263.5675,-0.001315
1265.4312,-0.001312
1267.2949,-0.001315
1269.1585,-0.001309
1271.0222,-0.001356
1272.8859,-0.001365
1274.7495,-0.001313
1276.6132,-0.001292
1278.4769,-0.001306
1280.3405,-0.001335
1282.2042,-0.001331
1284.0679,-0.001306
1285.9316,-0.001278
1287.7952,-0.001283
1289.6589,-0.001301
1291.5226,-0.001282
1293.3862,-0.001221
1295.2499,-0.001192
1297.1136,-0.001223
1298.9772,-0.001219
1300.8409,-0.001204
1302.7046,-0.001214
1304.5682,-0.001217
1306.4319,-0.001225
1308.2956,-0.001195
1310.1592,-0.001100
1312.0229,-0.001115
1313.8866,-0.001141
1315.7503,-0.001095
1317.6139,-0.001145
1319.4776,-0.001214
1321.3413,-0.001199
1323.2049,-0.001170
1325.0686,-0.001128
1326.9323,-0.001087
1328.7959,-0.001123
1330.6596,-0.001131
1332.5233,-0.001026
1334.3869,-0.000906
1336.2506,-0.000919
1338.1143,-0.001109
1339.9780,-0.001303
1341.8416,-0.001111
1343.7053,-0.000940
1345.5690,-0.000934
1347.4326,-0.000976
1349.2963,-0.000990
1351.1600,-0.000964
1353.0236,-0.000975
1354.8873,-0.001008
1356.7510,-0.000955
1358.6146,-0.000788
1360.4783,-0.000758
1362.3420,-0.001098
1364.2056,-0.001148
1366.0693,-0.000901
1367.9330,-0.000964
1369.7967,-0.000929
1371.6603,-0.000741
1373.5240,-0.000951
1375.3877,-0.001150
1377.2513,-0.001039
1379.1150,-0.001013
1380.9787,-0.000896
1382.8423,-0.000712
1384.7060,-0.000658
1386.5697,-0.000987
1388.4333,-0.001115
1390.2970,-0.000764
1392.1607,-0.000517
1394.0244,-0.000760
1395.8880,-0.000994
1397.7517,-0.000970
1399.6154,-0.001123
1401.4790,-0.000832
1403.3427,-0.000751
1405.2064,-0.001009
1407.0700,-0.000875
1408.9337,-0.000690
1410.7974,-0.000781
1412.6610,-0.000777
1414.5247,-0.000530
1416.3884,-0.000430
1418.2520,-0.001077
1420.1157,-0.001421
1421.9794,-0.000963
1423.8431,-0.001015
1425.7067,-0.000947
1427.5704,-0.000732
1429.4341,-0.000918
1431.2977,-0.000955
1433.1614,-0.000500
1435.0251,-0.000601
1436.8887,-0.001505
1438.7524,-0.001299
1440.6161,-0.000865
1442.4797,-0.000776
1444.3434,-0.000665
1446.2071,-0.000699
1448.0707,-0.000989
1449.9344,-0.000896
1451.7981,-0.000562
1453.6618,-0.000189
1455.5254,-0.000484
1457.3891,-0.001979
1459.2528,-0.001701
1461.1164,-0.000748
1462.9801,-0.000539
1464.8438,-0.001132
1466.7074,-0.001052
1468.5711,-0.000434
1470.4348,-0.000350
1472.2984,-0.001128
1474.1621,-0.001482
1476.0258,-0.001356
1477.8895,-0.001112
1479.7531,-0.000929
1481.6168,-0.000968
1483.4805,-0.000747
1485.3441,-0.000484
1487.2078,-0.000613
1489.0715,-0.001295
1490.9351,-0.001588
1492.7988,-0.000790
1494.6625,-0.000505
1496.5261,-0.001052
1498.3898,-0.001281
1500.2535,-0.000964
1502.1171,-0.000332
1503.9808,0.000175
1505.8445,-0.000829
1507.7082,-0.002450
1509.5718,-0.001526
1511.4355,-0.000852
1513.2992,-0.000519
1515.1628,-0.000518
1517.0265,-0.000851
1518.8902,-0.000636
1520.7538,-0.001122
1522.6175,-0.001565
1524.4812,-0.001170
1526.3448,-0.001335
1528.2085,-0.001150
1530.0722,-0.000623
1531.9359,-0.000796
1533.7995,-0.001407
1535.6632,-0.000595
1537.5269,-0.000034
1539.3905,-0.001158
1541.2542,-0.002198
1543.1179,-0.001808
1544.9815,-0.001557
1546.8452,-0.000960
1548.7089,-0.000750
1550.5725,-0.000889
1552.4362,-0.000523
1554.2999,-0.000238
1556.1635,-0.000021
1558.0272,-0.001576
1559.8909,-0.003365
1561.7546,-0.001636
1563.6182,-0.000930
1565.4819,-0.000819
1567.3456,-0.000673
1569.2092,-0.001238
1571.0729,-0.001243
1572.9366,-0.000565
1574.8002,-0.000852
1576.6639,-0.001829
1578.5276,-0.001518
1580.3912,-0.001025
1582.2549,-0.000982
1584.1186,-0.000979
1585.9822,-0.000967
1587.8459,-0.000982
1589.7096,-0.001048
1591.5733,-0.001077
1593.4369,-0.001116
1595.3006,-0.001155
1597.1643,-0.001093
1599.0279,-0.000993
1600.8916,-0.001069
1602.7553,-0.001171
1604.6189,-0.001136
1606.4826,-0.001093
1608.3463,-0.001247
1610.2099,-0.001250
1612.0736,-0.000987
1613.9373,-0.000838
1615.8010,-0.001525
1617.6646,-0.001999
1619.5283,-0.001202
1621.3920,-0.001060
1623.2556,-0.001633
1625.1193,-0.001630
1626.9830,-0.001552
1628.8466,-0.001617
1630.7103,-0.001053
1632.5740,-0.000541
1634.4376,-0.001133
1636.3013,-0.002408
1638.1650,-0.001899
1640.0286,-0.001263
1641.8923,-0.000809
1643.7560,-0.000476
1645.6197,-0.001038
1647.4833,-0.001587
1649.3470,-0.000444
1651.2107,-0.000227
1653.0743,-0.002437
1654.9380,-0.002527
1656.8017,-0.001131
1658.6653,-0.000687
1660.5290,-0.000786
1662.3927,-0.001305
1664.2563,-0.001174
1666.1200,-0.000594
1667.9837,-0.000775
1669.8474,-0.001403
1671.7110,-0.001133
1673.5747,-0.000999
1675.4384,-0.001495
1677.3020,-0.001192
1679.1657,-0.000701
1681.0294,-0.000494
1682.8930,-0.001037
1684.7567,-0.002528
1686.6204,-0.001858
1688.4840,-0.001411
1690.3477,-0.001311
1692.2114,-0.000854
1694.0750,-0.000769
1695.9387,-0.001286
1697.8024,-0.001263
1699.6661,-0.001961
1701.5297,-0.002318
1703.3934,-0.001478
1705.2571,-0.001653
1707.1207,-0.001756
1708.9844,-0.001409
1710.8481,-0.001102
1712.7117,-0.000847
1714.5754,-0.000999
1716.4391,-0.001711
1718.3027,-0.002431
1720.1664,-0.001877
1722.0301,-0.001391
1723.8937,-0.001405
1725.7574,-0.001284
1727.6211,-0.001093
1729.4848,-0.001032
1731.3484,-0.000982
1733.2121,-0.001605
1735.0758,-0.002110
1736.9394,-0.001357
1738.8031,-0.001306
1740.6668,-0.001523
1742.5304,-0.001319
1744.3941,-0.001166
1746.2578,-0.001118
1748.1214,-0.001345
1749.9851,-0.001752
1751.8488,-0.001871
1753.7125,-0.001465
1755.5761,-0.001312
1757.4398,-0.001414
1759.3035,-0.001221
1761.1671,-0.001439
1763.0308,-0.001596
1764.8945,-0.001286
1766.7581,-0.001183
1768.6218,-0.001278
1770.4855,-0.001471
1772.3491,-0.001990
1774.2128,-0.001883
1776.0765,-0.001496
1777.9401,-0.001289
1779.8038,-0.001315
1781.6675,-0.001362
1783.5312,-0.001407
1785.3948,-0.001528
1787.2585,-0.001285
1789.1222,-0.001100
1790.9858,-0.001451
1792.8495,-0.001830
1794.7132,-0.001604
1796.5768,-0.001402
1798.4405,-0.001410
1800.3042,-0.001578
1802.1678,-0.001677
1804.0315,-0.001535
1805.8952,-0.001407
1807.7589,-0.001396
1809.6225,-0.001493
1811.4862,-0.001641
1813.3499,-0.001566
1815.2135,-0.001494
1817.0772,-0.001597
1818.9409,-0.001539
1820.8045,-0.001346
1822.6682,-0.001383
1824.5319,-0.001556
1826.3955,-0.001540
1828.2592,-0.001494
1830.1229,-0.001758
1831.9865,-0.001706
1833.8502,-0.001447
1835.7139,-0.001367
1837.5776,-0.001418
1839.4412,-0.001305
1841.3049,-0.001182
1843.1686,-0.001471
1845.0322,-0.001827
1846.8959,-0.001658
1848.7596,-0.001511
1850.6232,-0.001477
1852.4869,-0.001466
1854.3506,-0.001348
1856.2142,-0.001393
1858.0779,-0.001465
1859.9416,-0.001479
1861.8052,-0.001476
1863.6689,-0.001445
1865.5326,-0.001443
1867.3963,-0.001489
1869.2599,-0.001666
1871.1236,-0.001615
1872.9873,-0.001315
1874.8509,-0.001172
1876.7146,-0.001299
1878.5783,-0.001516
1880.4419,-0.001440
1882.3056,-0.001211
1884.1693,-0.001178
1886.0329,-0.001221
1887.8966,-0.001216
1889.7603,-0.001432
1891.6240,-0.001363
1893.4876,-0.001257
1895.3513,-0.001439
1897.2150,-0.001405
1899.0786,-0.001422
1900.9423,-0.001370
1902.8060,-0.001186
1904.6696,-0.001113
1906.5333,-0.001155
1908.3970,-0.001242
1910.2606,-0.001393
1912.1243,-0.001371
1913.9880,-0.001347
1915.8516,-0.001282
1917.7153,-0.001292
1919.5790,-0.001414
1921.4427,-0.001472
1923.3063,-0.001523
1925.1700,-0.001320
1927.0337,-0.001300
1928.8973,-0.001263
1930.7610,-0.001219
1932.6247,-0.001358
1934.4883,-0.001358
1936.3520,-0.001306
1938.2157,-0.001441
1940.0793,-0.001379
1941.9430,-0.001292
1943.8067,-0.001155
1945.6704,-0.000834
1947.5340,-0.000760
1949.3977,-0.000929
1951.2614,-0.001027
1953.1250,-0.000912
1954.9887,-0.000960
1956.8524,-0.001267
1958.7160,-0.001346
1960.5797,-0.001172
1962.4434,-0.001254
1964.3070,-0.001260
1966.1707,-0.000837
1968.0344,-0.000380
1969.8980,-0.000532
1971.7617,-0.000817
1973.6254,-0.000777
1975.4891,-0.000572
1977.3527,-0.000559
1979.2164,-0.000094
1981.0801,0.000428
1982.9437,-0.000032
1984.8074,0.000131
1986.6711,0.000301
1988.5347,-0.000183
1990.3984,-0.000271
1992.2621,0.000076
1994.1257,-0.000050
1995.9894,-0.000197
1997.8531,-0.000066
1999.7167,-0.000380
2001.5804,-0.000704
2003.4441,-0.000740
2005.3078,-0.000344
2007.1714,0.000019
2009.0351,-0.000075
2010.8988,0.000411
2012.7624,0.000725
2014.6261,0.000584
2016.4898,-0.000016
2018.3534,-0.000581
2020.2171,-0.000139
2022.0808,0.000280
2023.9444,0.000322
2025.8081,0.000463
2027.6718,0.000158
2029.5355,-0.000105
2031.3991,-0.000046
2033.2628,0.000018
2035.1265,0.000183
2036.9901,0.000443
2038.8538,0.000512
2040.7175,0.000463
2042.5811,0.000371
2044.4448,0.000511
2046.3085,0.000664
2048.1721,0.000693
2050.0358,0.000780
2051.8995,0.000806
2053.7631,0.000596
2055.6268,0.000402
2057.4905,0.000040
2059.3542,-0.000134
2061.2178,-0.000035
2063.0815,0.000326
2064.9452,0.000401
2066.8088,0.000173
2068.6725,0.000062
2070.5362,-0.000172
2072.3998,-0.000462
2074.2635,-0.000379
2076.1272,-0.000206
2077.9908,-0.000155
2079.8545,-0.000009
2081.7182,0.000051
2083.5819,-0.000206
2085.4455,-0.000291
2087.3092,-0.000297
2089.1729,-0.000385
2091.0365,-0.000373
2092.9002,-0.000603
2094.7639,-0.000844
2096.6275,-0.000621
2098.4912,-0.000392
2100.3549,-0.000139
2102.2185,-0.000250
2104.0822,-0.000457
2105.9459,-0.000314
2107.8095,-0.000249
2109.6732,-0.000259
2111.5369,-0.000140
2113.4006,-0.000035
2115.2642,-0.000310
2117.1279,-0.000475
2118.9916,-0.000556
2120.8552,-0.000754
2122.7189,-0.000859
2124.5826,-0.001050
2126.4462,-0.001275
2128.3099,-0.001412
2130.1736,-0.001678
2132.0372,-0.001571
2133.9009,-0.001099
2135.7646,-0.000724
2137.6282,-0.000661
2139.4919,-0.000803
2141.3556,-0.000767
2143.2193,-0.001067
2145.0829,-0.001247
2146.9466,-0.000555
2148.8103,-0.000295
2150.6739,-0.000809
2152.5376,-0.001545
2154.4013,-0.001593
2156.2649,-0.000618
2158.1286,0.000621
2159.9923,0.000904
2161.8559,0.000920
2163.7196,0.001397
2165.5833,0.001432
2167.4470,0.000789
2169.3106,0.000743
2171.1743,0.000790
2173.0380,0.000356
2174.9016,0.000045
2176.7653,0.000275
2178.6290,0.000619
2180.4926,0.000296
2182.3563,-0.000013
2184.2200,0.000388
2186.0836,0.000716
2187.9473,0.000704
2189.8110,0.000969
2191.6746,0.001119
2193.5383,0.000889
2195.4020,0.000550
2197.2657,0.000226
2199.1293,-0.000074
2200.9930,-0.000147
2202.8567,-0.000024
2204.7203,0.000157
2206.5840,0.000277
2208.4477,0.000126
2210.3113,-0.000022
2212.1750,0.000065
2214.0387,0.000419
2215.9023,0.000788
2217.7660,0.000444
2219.6297,-0.000079
2221.4934,0.000047
2223.3570,0.000266
2225.2207,0.000142
2227.0844,0.000193
2228.9480,0.000342
2230.8117,0.000105
2232.6754,-0.000131
2234.5390,-0.000143
2236.4027,-0.000009
2238.2664,-0.000179
2240.1300,-0.000148
2241.9937,0.000300
2243.8574,0.000209
2245.7210,-0.000376
2247.5847,-0.000499
2249.4484,-0.000201
2251.3121,0.000129
2253.1757,0.000083
2255.0394,-0.000143
2256.9031,-0.000057
2258.7667,-0.000044
2260.6304,-0.000125
2262.4941,-0.000150
2264.3577,-0.000152
2266.2214,-0.000183
2268.0851,-0.000059
2269.9487,0.000127
2271.8124,0.000102
2273.6761,-0.000040
2275.5397,-0.000259
2277.4034,-0.000124
2279.2671,-0.000002
2281.1308,0.000003
2282.9944,0.000153
2284.8581,0.000281
2286.7218,0.000159
2288.5854,-0.000064
2290.4491,-0.000073
2292.3128,-0.000175
2294.1764,-0.000319
2296.0401,-0.000358
2297.9038,-0.000224
2299.7674,-0.000164
2301.6311,-0.000237
2303.4948,-0.000194
2305.3585,-0.000181
2307.2221,-0.000335
2309.0858,-0.000541
2310.9495,-0.000516
2312.8131,-0.000297
2314.6768,-0.000149
2316.5405,-0.000110
2318.4041,-0.000124
2320.2678,-0.000094
2322.1315,0.000071
2323.9951,0.000167
2325.8588,0.000016
2327.7225,-0.000608
2329.5861,-0.001147
2331.4498,-0.001215
2333.3135,-0.001062
2335.1772,-0.001076
2337.0408,-0.001027
2338.9045,-0.000912
2340.7682,-0.000944
2342.6318,-0.000994
2344.4955,-0.001076
2346.3592,-0.000943
2348.2228,-0.000478
2350.0865,-0.000496
2351.9502,-0.000808
2353.8138,-0.001210
2355.6775,-0.001604
2357.5412,-0.001422
2359.4049,-0.001484
2361.2685,-0.001564
2363.1322,-0.001383
2364.9959,-0.001216
2366.8595,-0.001280
2368.7232,-0.001550
2370.5869,-0.001628
2372.4505,-0.001714
2374.3142,-0.001698
2376.1779,-0.001474
2378.0415,-0.001434
2379.9052,-0.001515
2381.7689,-0.001438
2383.6325,-0.001231
2385.4962,-0.001216
2387.3599,-0.001284
2389.2236,-0.001241
2391.0872,-0.001144
2392.9509,-0.001145
2394.8146,-0.001202
2396.6782,-0.001304
2398.5419,-0.001338
2400.4056,-0.001240
2402.2692,-0.001204
2404.1329,-0.001220
2405.9966,-0.001139
2407.8602,-0.000977
2409.7239,-0.000955
2411.5876,-0.001003
2413.4512,-0.001048
2415.3149,-0.001055
2417.1786,-0.001058
2419.0423,-0.001165
2420.9059,-0.001130
2422.7696,-0.001048
2424.6333,-0.000896
2426.4969,-0.000855
2428.3606,-0.000886
2430.2243,-0.000947
2432.0879,-0.000885
2433.9516,-0.000782
2435.8153,-0.000904
2437.6789,-0.000979
2439.5426,-0.000899
2441.4063,-0.000892
2443.2700,-0.000800
2445.1336,-0.000660
2446.9973,-0.000803
2448.8610,-0.000973
2450.7246,-0.000869
2452.5883,-0.000794
2454.4520,-0.000856
2456.3156,-0.000956
2458.1793,-0.001054
2460.0430,-0.001054
2461.9066,-0.000895
2463.7703,-0.000931
2465.6340,-0.000998
2467.4976,-0.000915
2469.3613,-0.000889
2471.2250,-0.000829
2473.0887,-0.000865
2474.9523,-0.000868
2476.8160,-0.000898
2478.6797,-0.001060
2480.5433,-0.001108
2482.4070,-0.001034
2484.2707,-0.001016
2486.1343,-0.000985
2487.9980,-0.000988
2489.8617,-0.001056
2491.7253,-0.001001
2493.5890,-0.000935
2495.4527,-0.000945
2497.3164,-0.001010
2499.1800,-0.001077
2501.0437,-0.001017
2502.9074,-0.000950
2504.7710,-0.000909
2506.6347,-0.000990
2508.4984,-0.001033
2510.3620,-0.000937
2512.2257,-0.000844
2514.0894,-0.000893
2515.9530,-0.000983
2517.8167,-0.000955
2519.6804,-0.001006
2521.5440,-0.001034
2523.4077,-0.000924
2525.2714,-0.000951
2527.1351,-0.000992
2528.9987,-0.000846
2530.8624,-0.000826
2532.7261,-0.000840
2534.5897,-0.000878
2536.4534,-0.000951
2538.3171,-0.000842
2540.1807,-0.000669
2542.0444,-0.000659
2543.9081,-0.000705
2545.7717,-0.000757
2547.6354,-0.000896
2549.4991,-0.000897
2551.3627,-0.000884
2553.2264,-0.000861
2555.0901,-0.000773
2556.9538,-0.000762
2558.8174,-0.000799
2560.6811,-0.000863
2562.5448,-0.000853
2564.4084,-0.000862
2566.2721,-0.000848
2568.1358,-0.000764
2569.9994,-0.000809
2571.8631,-0.000820
2573.7268,-0.000767
2575.5904,-0.000703
2577.4541,-0.000682
2579.3178,-0.000720
2581.1815,-0.000750
2583.0451,-0.000772
2584.9088,-0.000803
2586.7725,-0.000896
2588.6361,-0.000900
2590.4998,-0.000844
2592.3635,-0.000712
2594.2271,-0.000682
2596.0908,-0.000762
2597.9545,-0.000782
2599.8181,-0.000788
2601.6818,-0.000805
2603.5455,-0.000735
2605.4091,-0.000781
2607.2728,-0.000784
2609.1365,-0.000815
2611.0002,-0.000896
2612.8638,-0.000825
2614.7275,-0.000793
2616.5912,-0.000739
2618.4548,-0.000733
2620.3185,-0.000792
2622.1822,-0.000784
2624.0458,-0.000787
2625.9095,-0.000858
2627.7732,-0.000854
2629.6368,-0.000929
2631.5005,-0.000998
2633.3642,-0.000931
2635.2279,-0.000837
2637.0915,-0.000863
2638.9552,-0.000900
2640.8189,-0.000914
2642.6825,-0.000967
2644.5462,-0.000934
2646.4099,-0.000919
2648.2735,-0.001024
2650.1372,-0.001057
2652.0009,-0.001011
2653.8645,-0.001069
2655.7282,-0.001071
2657.5919,-0.001054
2659.4555,-0.001131
2661.3192,-0.001249
2663.1829,-0.001316
2665.0466,-0.001325
2666.9102,-0.001405
2668.7739,-0.001477
2670.6376,-0.001451
2672.5012,-0.001471
2674.3649,-0.001470
2676.2286,-0.001450
2678.0922,-0.001450
2679.9559,-0.001454
2681.8196,-0.001431
2683.6832,-0.001415
2685.5469,-0.001396
2687.4106,-0.001392
2689.2742,-0.001435
2691.1379,-0.001432
2693.0016,-0.001433
2694.8653,-0.001492
2696.7289,-0.001518
2698.5926,-0.001489
2700.4563,-0.001427
2702.3199,-0.001417
2704.1836,-0.001449
2706.0473,-0.001492
2707.9109,-0.001501
2709.7746,-0.001468
2711.6383,-0.001424
2713.5019,-0.001389
2715.3656,-0.001417
2717.2293,-0.001393
2719.0930,-0.001414
2720.9566,-0.001466
2722.8203,-0.001494
2724.6840,-0.001465
2726.5476,-0.001429
2728.4113,-0.001465
2730.2750,-0.001533
2732.1386,-0.001563
2734.0023,-0.001530
2735.8660,-0.001443
2737.7296,-0.001402
2739.5933,-0.001471
2741.4570,-0.001521
2743.3206,-0.001524
2745.1843,-0.001548
2747.0480,-0.001520
2748.9117,-0.001515
2750.7753,-0.001568
2752.6390,-0.001562
2754.5027,-0.001469
2756.3663,-0.001461
2758.2300,-0.001554
2760.0937,-0.001540
2761.9573,-0.001485
2763.8210,-0.001534
2765.6847,-0.001612
2767.5483,-0.001626
2769.4120,-0.001531
2771.2757,-0.001491
2773.1394,-0.001545
2775.0030,-0.001582
2776.8667,-0.001580
2778.7304,-0.001568
2780.5940,-0.001520
2782.4577,-0.001495
2784.3214,-0.001485
2786.1850,-0.001465
2788.0487,-0.001540
2789.9124,-0.001600
2791.7760,-0.001532
2793.6397,-0.001502
2795.5034,-0.001578
2797.3670,-0.001597
2799.2307,-0.001515
2801.0944,-0.001531
2802.9581,-0.001529
2804.8217,-0.001506
2806.6854,-0.001536
2808.5491,-0.001499
2810.4127,-0.001499
2812.2764,-0.001528
2814.1401,-0.001576
2816.0037,-0.001484
2817.8674,-0.001478
2819.7311,-0.001560
2821.5947,-0.001550
2823.4584,-0.001480
2825.3221,-0.001461
2827.1857,-0.001506
2829.0494,-0.001517
2830.9131,-0.001474
2832.7768,-0.001524
2834.6404,-0.001540
2836.5041,-0.001483
2838.3678,-0.001424
2840.2314,-0.001440
2842.0951,-0.001437
2843.9588,-0.001396
2845.8224,-0.001314
2847.6861,-0.001303
2849.5498,-0.001322
2851.4134,-0.001312
2853.2771,-0.001309
2855.1408,-0.001329
2857.0045,-0.001392
2858.8681,-0.001401
2860.7318,-0.001412
2862.5955,-0.001357
2864.4591,-0.001329
2866.3228,-0.001370
2868.1865,-0.001361
2870.0501,-0.001367
2871.9138,-0.001407
2873.7775,-0.001317
2875.6411,-0.001274
2877.5048,-0.001357
2879.3685,-0.001418
2881.2321,-0.001355
2883.0958,-0.001363
2884.9595,-0.001360
2886.8232,-0.001292
2888.6868,-0.001278
2890.5505,-0.001328
2892.4142,-0.001389
2894.2778,-0.001385
2896.1415,-0.001314
2898.0052,-0.001268
2899.8688,-0.001322
2901.7325,-0.001378
2903.5962,-0.001335
2905.4598,-0.001334
2907.3235,-0.001344
2909.1872,-0.001309
2911.0509,-0.001221
2912.9145,-0.001261
2914.7782,-0.001297
2916.6419,-0.001265
2918.5055,-0.001313
2920.3692,-0.001331
2922.2329,-0.001298
2924.0965,-0.001308
2925.9602,-0.001424
2927.8239,-0.001421
2929.6875,-0.001294
2931.5512,-0.001225
2933.4149,-0.001257
2935.2785,-0.001315
2937.1422,-0.001274
2939.0059,-0.001331
2940.8696,-0.001422
2942.7332,-0.001345
2944.5969,-0.001331
2946.4606,-0.001453
2948.3242,-0.001503
2950.1879,-0.001384
2952.0516,-0.001273
2953.9152,-0.001297
2955.7789,-0.001323
2957.6426,-0.001364
2959.5062,-0.001456
2961.3699,-0.001512
2963.2336,-0.001528
2965.0972,-0.001489
2966.9609,-0.001404
2968.8246,-0.001386
2970.6883,-0.001426
2972.5519,-0.001491
2974.4156,-0.001549
2976.2793,-0.001527
2978.1429,-0.001468
2980.0066,-0.001511
2981.8703,-0.001559
2983.7339,-0.001518
2985.5976,-0.001512
2987.4613,-0.001561
2989.3249,-0.001571
2991.1886,-0.001522
2993.0523,-0.001497
2994.9160,-0.001592
2996.7796,-0.001644
2998.6433,-0.001590
3000.5070,-0.001532
3002.3706,-0.001540
3004.2343,-0.001546
3006.0980,-0.001526
3007.9616,-0.001532
3009.8253,-0.001571
3011.6890,-0.001612
3013.5526,-0.001622
3015.4163,-0.001623
3017.2800,-0.001539
3019.1436,-0.001491
3021.0073,-0.001531
3022.8710,-0.001611
3024.7347,-0.001651
3026.5983,-0.001639
3028.4620,-0.001614
3030.3257,-0.001581
3032.1893,-0.001580
3034.0530,-0.001625
3035.9167,-0.001600
3037.7803,-0.001488
3039.6440,-0.001423
3041.5077,-0.001512
3043.3713,-0.001539
3045.2350,-0.001575
3047.0987,-0.001542
3048.9624,-0.001594
3050.8260,-0.001630
3052.6897,-0.001598
3054.5534,-0.001554
3056.4170,-0.001511
3058.2807,-0.001509
3060.1444,-0.001462
3062.0080,-0.001513
3063.8717,-0.001615
3065.7354,-0.001611
3067.5990,-0.001575
3069.4627,-0.001604
3071.3264,-0.001624
3073.1900,-0.001626
3075.0537,-0.001636
3076.9174,-0.001596
3078.7811,-0.001546
3080.6447,-0.001647
3082.5084,-0.001663
3084.3721,-0.001648
3086.2357,-0.001548
3088.0994,-0.001456
3089.9631,-0.001640
3091.8267,-0.001771
3093.6904,-0.001746
3095.5541,-0.001735
3097.4177,-0.001682
3099.2814,-0.001610
3101.1451,-0.001535
3103.0087,-0.001492
3104.8724,-0.001468
3106.7361,-0.001620
3108.5998,-0.001769
3110.4634,-0.001668
3112.3271,-0.001485
3114.1908,-0.001449
3116.0544,-0.001505
3117.9181,-0.001544
3119.7818,-0.001569
3121.6454,-0.001566
3123.5091,-0.001658
3125.3728,-0.001687
3127.2364,-0.001561
3129.1001,-0.001489
3130.9638,-0.001527
3132.8275,-0.001631
3134.6911,-0.001685
3136.5548,-0.001607
3138.4185,-0.001529
3140.2821,-0.001554
3142.1458,-0.001521
3144.0095,-0.001487
3145.8731,-0.001470
3147.7368,-0.001514
3149.6005,-0.001525
3151.4641,-0.001539
3153.3278,-0.001507
3155.1915,-0.001451
3157.0551,-0.001424
3158.9188,-0.001514
3160.7825,-0.001575
3162.6462,-0.001549
3164.5098,-0.001409
3166.3735,-0.001359
3168.2372,-0.001420
3170.1008,-0.001408
3171.9645,-0.001413
3173.8282,-0.001420
3175.6918,-0.001366
3177.5555,-0.001479
3179.4192,-0.001620
3181.2828,-0.001592
3183.1465,-0.001514
3185.0102,-0.001495
3186.8739,-0.001515
3188.7375,-0.001527
3190.6012,-0.001476
3192.4649,-0.001484
3194.3285,-0.001556
3196.1922,-0.001556
3198.0559,-0.001484
3199.9195,-0.001518
3201.7832,-0.001467
3203.6469,-0.001401
3205.5105,-0.001383
3207.3742,-0.001455
3209.2379,-0.001540
3211.1015,-0.001464
3212.9652,-0.001492
3214.8289,-0.001598
3216.6926,-0.001536
3218.5562,-0.001447
3220.4199,-0.001499
3222.2836,-0.001638
3224.1472,-0.001517
3226.0109,-0.001400
3227.8746,-0.001457
3229.7382,-0.001503
3231.6019,-0.001487
3233.4656,-0.001442
3235.3292,-0.001356
3237.1929,-0.001266
3239.0566,-0.001223
3240.9202,-0.001211
3242.7839,-0.001194
3244.6476,-0.001201
3246.5113,-0.001203
3248.3749,-0.001284
3250.2386,-0.001282
3252.1023,-0.001247
3253.9659,-0.001252
3255.8296,-0.001229
3257.6933,-0.001160
3259.5569,-0.001199
3261.4206,-0.001315
3263.2843,-0.001300
3265.1479,-0.001162
3267.0116,-0.001088
3268.8753,-0.001124
3270.7390,-0.001163
3272.6026,-0.001288
3274.4663,-0.001390
3276.3300,-0.001239
3278.1936,-0.001135
3280.0573,-0.001171
3281.9210,-0.001255
3283.7846,-0.001299
3285.6483,-0.001363
3287.5120,-0.001349
3289.3756,-0.001276
3291.2393,-0.001202
3293.1030,-0.001319
3294.9666,-0.001258
3296.8303,-0.001164
3298.6940,-0.001167
3300.5577,-0.001193
3302.4213,-0.001247
3304.2850,-0.001229
3306.1487,-0.001353
3308.0123,-0.001323
3309.8760,-0.001232
3311.7397,-0.001292
3313.6033,-0.001286
3315.4670,-0.001404
3317.3307,-0.001399
3319.1943,-0.001310
3321.0580,-0.001263
3322.9217,-0.001392
3324.7854,-0.001429
3326.6490,-0.001317
3328.5127,-0.001323
3330.3764,-0.001418
3332.2400,-0.001388
3334.1037,-0.001348
3335.9674,-0.001360
3337.8310,-0.001411
3339.6947,-0.001365
3341.5584,-0.001340
3343.4220,-0.001294
3345.2857,-0.001265
3347.1494,-0.001320
3349.0130,-0.001352
3350.8767,-0.001423
3352.7404,-0.001505
3354.6041,-0.001519
3356.4677,-0.001500
3358.3314,-0.001548
3360.1951,-0.001533
3362.0587,-0.001417
3363.9224,-0.001324
3365.7861,-0.001296
3367.6497,-0.001540
3369.5134,-0.001658
3371.3771,-0.001529
3373.2407,-0.001550
3375.1044,-0.001620
3376.9681,-0.001597
3378.8317,-0.001515
3380.6954,-0.001436
3382.5591,-0.001419
3384.4228,-0.001441
3386.2864,-0.001568
3388.1501,-0.001602
3390.0138,-0.001542
3391.8774,-0.001637
3393.7411,-0.001562
3395.6048,-0.001421
3397.4684,-0.001362
3399.3321,-0.001416
3401.1958,-0.001495
3403.0594,-0.001595
3404.9231,-0.001651
3406.7868,-0.001673
3408.6505,-0.001653
3410.5141,-0.001491
3412.3778,-0.001633
3414.2415,-0.001757
3416.1051,-0.001623
3417.9688,-0.001610
3419.8325,-0.001637
3421.6961,-0.001590
3423.5598,-0.001578
3425.4235,-0.001709
3427.2871,-0.001800
3429.1508,-0.001773
3431.0145,-0.001783
3432.8781,-0.001920
3434.7418,-0.002101
3436.6055,-0.001869
3438.4692,-0.001598
3440.3328,-0.001534
3442.1965,-0.001559
3444.0602,-0.001694
3445.9238,-0.001823
3447.7875,-0.001795
3449.6512,-0.001810
3451.5148,-0.001851
3453.3785,-0.001758
3455.2422,-0.001789
3457.1058,-0.001866
3458.9695,-0.001943
3460.8332,-0.001793
3462.6969,-0.001653
3464.5605,-0.001799
3466.4242,-0.001816
3468.2879,-0.001537
3470.1515,-0.001419
3472.0152,-0.001690
3473.8789,-0.001897
3475.7425,-0.001883
3477.6062,-0.001804
3479.4699,-0.001746
3481.3335,-0.001753
3483.1972,-0.001821
3485.0609,-0.001611
3486.9245,-0.001528
3488.7882,-0.001731
3490.6519,-0.001765
3492.5156,-0.001662
3494.3792,-0.001700
3496.2429,-0.001653
3498.1066,-0.001597
3499.9702,-0.001579
3501.8339,-0.001654
3503.6976,-0.001802
3505.5612,-0.001535
3507.4249,-0.001503
3509.2886,-0.001916
3511.1522,-0.002069
3513.0159,-0.001886
3514.8796,-0.001628
3516.7432,-0.001544
3518.6069,-0.001496
3520.4706,-0.001475
3522.3343,-0.001557
3524.1979,-0.001629
3526.0616,-0.001662
3527.9253,-0.001666
3529.7889,-0.001552
3531.6526,-0.001446
3533.5163,-0.001535
3535.3799,-0.001772
3537.2436,-0.001604
3539.1073,-0.001437
3540.9709,-0.001585
3542.8346,-0.001495
3544.6983,-0.001517
3546.5620,-0.001655
3548.4256,-0.001506
3550.2893,-0.001436
3552.1530,-0.001497
3554.0166,-0.001635
3555.8803,-0.001664
3557.7440,-0.001622
3559.6076,-0.001526
3561.4713,-0.001421
3563.3350,-0.001186
3565.1986,-0.001029
3567.0623,-0.001280
3568.9260,-0.001595
3570.7896,-0.001624
3572.6533,-0.001385
3574.5170,-0.001228
3576.3807,-0.001268
3578.2443,-0.001212
3580.1080,-0.001329
3581.9717,-0.001433
3583.8353,-0.001255
3585.6990,-0.001061
3587.5627,-0.001281
3589.4263,-0.001403
3591.2900,-0.001132
3593.1537,-0.001111
3595.0173,-0.001123
3596.8810,-0.001115
3598.7447,-0.001162
3600.6084,-0.001252
3602.4720,-0.001225
3604.3357,-0.001087
3606.1994,-0.000835
3608.0630,-0.000903
3609.9267,-0.001143
3611.7904,-0.001009
3613.6540,-0.000978
3615.5177,-0.001068
3617.3814,-0.001100
3619.2450,-0.001158
3621.1087,-0.001095
3622.9724,-0.000941
3624.8360,-0.000737
3626.6997,-0.000687
3628.5634,-0.000852
3630.4271,-0.000921
3632.2907,-0.000822
3634.1544,-0.001004
3636.0181,-0.000987
3637.8817,-0.000918
3639.7454,-0.000877
3641.6091,-0.000912
3643.4727,-0.000809
3645.3364,-0.000776
3647.2001,-0.000819
3649.0637,-0.000828
3650.9274,-0.001105
3652.7911,-0.001092
3654.6547,-0.000775
3656.5184,-0.000743
3658.3821,-0.000881
3660.2458,-0.000884
3662.1094,-0.000882
3663.9731,-0.000947
3665.8368,-0.000910
3667.7004,-0.000847
3669.5641,-0.000864
3671.4278,-0.000964
3673.2914,-0.000625
3675.1551,-0.000607
3677.0188,-0.000931
3678.8824,-0.000924
3680.7461,-0.000878
3682.6098,-0.000888
3684.4735,-0.000859
3686.3371,-0.000659
3688.2008,-0.000602
3690.0645,-0.000714
3691.9281,-0.000720
3693.7918,-0.000774
3695.6555,-0.000846
3697.5191,-0.000883
3699.3828,-0.000827
3701.2465,-0.000963
3703.1101,-0.001034
3704.9738,-0.000743
3706.8375,-0.000572
3708.7011,-0.000708
3710.5648,-0.000860
3712.4285,-0.001000
3714.2922,-0.001017
3716.1558,-0.000879
3718.0195,-0.000822
3719.8832,-0.000892
3721.7468,-0.000931
3723.6105,-0.000795
3725.4742,-0.000729
3727.3378,-0.000799
3729.2015,-0.000681
3731.0652,-0.000507
3732.9288,-0.000550
3734.7925,-0.000778
3736.6562,-0.000981
3738.5199,-0.000961
3740.3835,-0.000783
3742.2472,-0.000688
3744.1109,-0.000802
3745.9745,-0.000997
3747.8382,-0.000762
3749.7019,-0.000806
3751.5655,-0.001153
3753.4292,-0.001192
3755.2929,-0.000955
3757.1565,-0.000932
3759.0202,-0.001083
3760.8839,-0.001152
3762.7475,-0.000983
3764.6112,-0.000939
3766.4749,-0.001051
3768.3386,-0.001085
3770.2022,-0.001127
3772.0659,-0.001124
3773.9296,-0.001036
3775.7932,-0.000890
3777.6569,-0.000859
3779.5206,-0.001185
3781.3842,-0.001286
3783.2479,-0.001055
3785.1116,-0.001080
3786.9752,-0.001125
3788.8389,-0.001057
3790.7026,-0.001021
3792.5662,-0.000959
3794.4299,-0.000911
3796.2936,-0.000990
3798.1573,-0.001009
3800.0209,-0.000975
3801.8846,-0.001297
3803.7483,-0.001189
3805.6119,-0.000955
3807.4756,-0.001307
3809.3393,-0.001294
3811.2029,-0.000933
3813.0666,-0.000802
3814.9303,-0.000821
3816.7939,-0.001000
3818.6576,-0.000991
3820.5213,-0.001164
3822.3850,-0.001460
3824.2486,-0.001329
3826.1123,-0.001137
3827.9760,-0.001203
3829.8396,-0.001056
3831.7033,-0.000925
3833.5670,-0.000923
3835.4306,-0.000960
3837.2943,-0.001075
3839.1580,-0.001165
3841.0216,-0.001094
3842.8853,-0.001204
3844.7490,-0.001259
3846.6126,-0.001141
3848.4763,-0.000830
3850.3400,-0.000670
3852.2037,-0.000812
3854.0673,-0.001499
3855.9310,-0.001788
3857.7947,-0.001346
3859.6583,-0.001051
3861.5220,-0.000877
3863.3857,-0.000974
3865.2493,-0.001105
3867.1130,-0.001084
3868.9767,-0.001207
3870.8403,-0.001421
3872.7040,-0.001365
3874.5677,-0.001389
3876.4314,-0.001182
3878.2950,-0.000970
3880.1587,-0.001072
3882.0224,-0.001108
3883.8860,-0.001045
3885.7497,-0.001134
3887.6134,-0.001141
3889.4770,-0.000995
3891.3407,-0.001095
3893.2044,-0.001317
3895.0680,-0.001244
3896.9317,-0.001031
3898.7954,-0.001075
3900.6590,-0.001235
3902.5227,-0.001182
3904.3864,-0.001257
3906.2501,-0.001294
3908.1137,-0.001163
3909.9774,-0.000987
3911.8411,-0.001017
3913.7047,-0.001118
3915.5684,-0.001081
3917.4321,-0.001062
3919.2957,-0.001140
3921.1594,-0.001276
3923.0231,-0.001391
3924.8867,-0.001357
3926.7504,-0.001133
3928.6141,-0.001092
3930.4777,-0.001244
3932.3414,-0.001257
3934.2051,-0.001157
3936.0688,-0.001074
3937.9324,-0.001165
3939.7961,-0.001230
3941.6598,-0.001250
3943.5234,-0.001217
3945.3871,-0.001222
3947.2508,-0.001237
3949.1144,-0.001336
3950.9781,-0.001290
3952.8418,-0.001269
3954.7054,-0.001305
3956.5691,-0.001313
3958.4328,-0.001323
3960.2965,-0.001290
3962.1601,-0.001262
3964.0238,-0.001285
3965.8875,-0.001227
3967.7511,-0.001164
3969.6148,-0.001179
3971.4785,-0.001147
3973.3421,-0.001177
3975.2058,-0.001292
3977.0695,-0.001332
3978.9331,-0.001359
3980.7968,-0.001349
3982.6605,-0.001194
3984.5241,-0.001238
3986.3878,-0.001370
3988.2515,-0.001332
3990.1152,-0.001183
3991.9788,-0.001208
3993.8425,-0.001330
3995.7062,-0.001269
3997.5698,-0.001224
3999.4335,-0.001345
