Wavenumber,Intensity
650.4205,-0.003381
652.2841,-0.002222
654.1478,-0.002245
656.0115,-0.003759
657.8751,-0.003852
659.7388,-0.002981
661.6025,-0.003040
663.4661,-0.003445
665.3298,-0.003800
667.1935,-0.002973
669.0571,-0.001651
670.9208,-0.003670
672.7845,-0.004918
674.6481,-0.004591
676.5118,-0.003990
678.3755,-0.004101
680.2392,-0.004224
682.1028,-0.004160
683.9665,-0.003726
685.8302,-0.003422
687.6938,-0.003526
689.5575,-0.003268
691.4212,-0.003202
693.2848,-0.003183
695.1485,-0.003297
697.0122,-0.003743
698.8758,-0.003541
700.7395,-0.003290
702.6032,-0.003490
704.4669,-0.003485
706.3305,-0.003569
708.1942,-0.003826
710.0579,-0.003761
711.9215,-0.003625
713.7852,-0.003874
715.6489,-0.003948
717.5125,-0.003672
719.3762,-0.003644
721.2399,-0.003820
723.1035,-0.003741
724.9672,-0.003629
726.8309,-0.003562
728.6945,-0.003304
730.5582,-0.003304
732.4219,-0.003708
734.2856,-0.003948
736.1492,-0.003904
738.0129,-0.003816
739.8766,-0.003708
741.7402,-0.003708
743.6039,-0.003839
745.4676,-0.003770
747.3312,-0.003504
749.1949,-0.003486
751.0586,-0.003729
752.9222,-0.003722
754.7859,-0.003710
756.6496,-0.003871
758.5132,-0.003798
760.3769,-0.003658
762.2406,-0.003742
764.1043,-0.003912
765.9679,-0.003763
767.8316,-0.003595
769.6953,-0.003765
771.5589,-0.003776
773.4226,-0.003749
775.2863,-0.003839
777.1499,-0.003812
779.0136,-0.003789
780.8773,-0.003789
782.7409,-0.003693
784.6046,-0.003547
786.4683,-0.003554
788.3320,-0.003635
790.1956,-0.003686
792.0593,-0.003782
793.9230,-0.003863
795.7866,-0.003862
797.6503,-0.003643
799.5140,-0.003426
801.3776,-0.003592
803.2413,-0.003799
805.1050,-0.003702
806.9686,-0.003612
808.8323,-0.003637
810.6960,-0.003564
812.5596,-0.003475
814.4233,-0.003491
816.2870,-0.003576
818.1507,-0.003647
820.0143,-0.003662
821.8780,-0.003567
823.7417,-0.003417
825.6053,-0.003366
827.4690,-0.003394
829.3327,-0.003411
831.1963,-0.003382
833.0600,-0.003275
834.9237,-0.003207
836.7873,-0.003217
838.6510,-0.003209
840.5147,-0.003238
842.3784,-0.003374
844.2420,-0.003434
846.1057,-0.003301
847.9694,-0.003266
849.8330,-0.003264
851.6967,-0.003190
853.5604,-0.003182
855.4240,-0.003220
857.2877,-0.003265
859.1514,-0.003259
861.0150,-0.003257
862.8787,-0.003327
864.7424,-0.003306
866.6060,-0.003200
868.4697,-0.003184
870.3334,-0.003147
872.1971,-0.003150
874.0607,-0.003224
875.9244,-0.003184
877.7881,-0.003143
879.6517,-0.003135
881.5154,-0.003126
883.3791,-0.003169
885.2427,-0.003210
887.1064,-0.003220
888.9701,-0.003181
890.8337,-0.003124
892.6974,-0.003122
894.5611,-0.003125
896.4247,-0.003101
898.2884,-0.003108
900.1521,-0.003093
902.0158,-0.003065
903.8794,-0.003148
905.7431,-0.003203
907.6068,-0.003172
909.4704,-0.003166
911.3341,-0.003118
913.1978,-0.003043
915.0614,-0.003048
916.9251,-0.003095
918.7888,-0.003095
920.6524,-0.003108
922.5161,-0.003143
924.3798,-0.003059
926.2435,-0.002990
928.1071,-0.003070
929.9708,-0.003137
931.8345,-0.003094
933.6981,-0.003035
935.5618,-0.003039
937.4255,-0.003010
939.2891,-0.002896
941.1528,-0.002875
943.0165,-0.002922
944.8801,-0.002855
946.7438,-0.002782
948.6075,-0.002794
950.4711,-0.002779
952.3348,-0.002759
954.1985,-0.002739
956.0622,-0.002692
957.9258,-0.002708
959.7895,-0.002729
961.6532,-0.002698
963.5168,-0.002646
965.3805,-0.002584
967.2442,-0.002534
969.1078,-0.002510
970.9715,-0.002486
972.8352,-0.002456
974.6988,-0.002389
976.5625,-0.002338
978.4262,-0.002316
980.2899,-0.002284
982.1535,-0.002294
984.0172,-0.002301
985.8809,-0.002246
987.7445,-0.002158
989.6082,-0.002127
991.4719,-0.002093
993.3355,-0.002056
995.1992,-0.002034
997.0629,-0.001970
998.9265,-0.001950
1000.7902,-0.001983
1002.6539,-0.001963
1004.5175,-0.001903
1006.3812,-0.001868
1008.2449,-0.001861
1010.1086,-0.001867
1011.9722,-0.001807
1013.8359,-0.001692
1015.6996,-0.001639
1017.5632,-0.001630
1019.4269,-0.001632
1021.2906,-0.001633
1023.1542,-0.001597
1025.0179,-0.001530
1026.8816,-0.001419
1028.7452,-0.001393
1030.6089,-0.001434
1032.4726,-0.001383
1034.3362,-0.001292
1036.1999,-0.001229
1038.0636,-0.001183
1039.9273,-0.001096
1041.7909,-0.001000
1043.6546,-0.000956
1045.5183,-0.000902
1047.3819,-0.000849
1049.2456,-0.000850
1051.1093,-0.000877
1052.9729,-0.000888
1054.8366,-0.000867
1056.7003,-0.000853
1058.5639,-0.000865
1060.4276,-0.000911
1062.2913,-0.000914
1064.1550,-0.000815
1066.0186,-0.000692
1067.8823,-0.000741
1069.7460,-0.000799
1071.6096,-0.000750
1073.4733,-0.000724
1075.3370,-0.000707
1077.2006,-0.000703
1079.0643,-0.000738
1080.9280,-0.000757
1082.7916,-0.000806
1084.6553,-0.000925
1086.5190,-0.000985
1088.3826,-0.000960
1090.2463,-0.000989
1092.1100,-0.001081
1093.9737,-0.001130
1095.8373,-0.001127
1097.7010,-0.001112
1099.5647,-0.001143
1101.4283,-0.001192
1103.2920,-0.001214
1105.1557,-0.001254
1107.0193,-0.001288
1108.8830,-0.001282
1110.7467,-0.001312
1112.6103,-0.001374
1114.4740,-0.001397
1116.3377,-0.001403
1118.2014,-0.001420
1120.0650,-0.001457
1121.9287,-0.001521
1123.7924,-0.001554
1125.6560,-0.001563
1127.5197,-0.001608
1129.3834,-0.001666
1131.2470,-0.001678
1133.1107,-0.001690
1134.9744,-0.001721
1136.8380,-0.001739
1138.7017,-0.001783
1140.5654,-0.001835
1142.4290,-0.001844
1144.2927,-0.001867
1146.1564,-0.001936
1148.0201,-0.001950
1149.8837,-0.001955
1151.7474,-0.002000
1153.6111,-0.002051
1155.4747,-0.002082
1157.3384,-0.002113
1159.2021,-0.002120
1161.0657,-0.002122
1162.9294,-0.002124
1164.7931,-0.002141
1166.6567,-0.002169
1168.5204,-0.002217
1170.3841,-0.002236
1172.2477,-0.002230
1174.1114,-0.002258
1175.9751,-0.002291
1177.8388,-0.002314
1179.7024,-0.002344
1181.5661,-0.002382
1183.4298,-0.002365
1185.2934,-0.002343
1187.1571,-0.002358
1189.0208,-0.002376
1190.8844,-0.002352
1192.7481,-0.002313
1194.6118,-0.002324
1196.4754,-0.002343
1198.3391,-0.002344
1200.2028,-0.002346
1202.0665,-0.002341
1203.9301,-0.002302
1205.7938,-0.002273
1207.6575,-0.002251
1209.5211,-0.002227
1211.3848,-0.002218
1213.2485,-0.002203
1215.1121,-0.002174
1216.9758,-0.002191
1218.8395,-0.002198
1220.7031,-0.002160
1222.5668,-0.002101
1224.4305,-0.002057
1226.2941,-0.002024
1228.1578,-0.002023
1230.0215,-0.002044
1231.8852,-0.002038
1233.7488,-0.002027
1235.6125,-0.002063
1237.4762,-0.002069
1239.3398,-0.002019
1241.2035,-0.002001
1243.0672,-0.002006
1244.9308,-0.002035
1246.7945,-0.002062
1248.6582,-0.002036
1250.5218,-0.002006
1252.3855,-0.002007
1254.2492,-0.002027
1256.1129,-0.002074
1257.9765,-0.002116
1259.8402,-0.002139
1261.7039,-0.002134
1263.5675,-0.002114
1265.4312,-0.002129
1267.2949,-0.002187
1269.1585,-0.002190
1271.0222,-0.002153
1272.8859,-0.002157
1274.7495,-0.002208
1276.6132,-0.002231
1278.4769,-0.002185
1280.3405,-0.002187
1282.2042,-0.002246
1284.0679,-0.002222
1285.9316,-0.002194
1287.7952,-0.002225
1289.6589,-0.002253
1291.5226,-0.002276
1293.3862,-0.002265
1295.2499,-0.002220
1297.1136,-0.002177
1298.9772,-0.002197
1300.8409,-0.002197
1302.7046,-0.002181
1304.5682,-0.002172
1306.4319,-0.002148
1308.2956,-0.002160
1310.1592,-0.002181
1312.0229,-0.002186
1313.8866,-0.002164
1315.7503,-0.002147
1317.6139,-0.002193
1319.4776,-0.002204
1321.3413,-0.002210
1323.2049,-0.002201
1325.0686,-0.002196
1326.9323,-0.002235
1328.7959,-0.002246
1330.6596,-0.002224
1332.5233,-0.002187
1334.3869,-0.002175
1336.2506,-0.002152
1338.1143,-0.002104
1339.9780,-0.002123
1341.8416,-0.002122
1343.7053,-0.002163
1345.5690,-0.002199
1347.4326,-0.002186
1349.2963,-0.002172
1351.1600,-0.002174
1353.0236,-0.002136
1354.8873,-0.002140
1356.7510,-0.002171
1358.6146,-0.002158
1360.4783,-0.002095
1362.3420,-0.002054
1364.2056,-0.001994
1366.0693,-0.002008
1367.9330,-0.001990
1369.7967,-0.001874
1371.6603,-0.001861
1373.5240,-0.001897
1375.3877,-0.001830
1377.2513,-0.001814
1379.1150,-0.001789
1380.9787,-0.001733
1382.8423,-0.001716
1384.7060,-0.001699
1386.5697,-0.001717
1388.4333,-0.001681
1390.2970,-0.001644
1392.1607,-0.001613
1394.0244,-0.001577
1395.8880,-0.001485
1397.7517,-0.001517
1399.6154,-0.001472
1401.4790,-0.001381
1403.3427,-0.001495
1405.2064,-0.001486
1407.0700,-0.001463
1408.9337,-0.001513
1410.7974,-0.001582
1412.6610,-0.001627
1414.5247,-0.001666
1416.3884,-0.001692
1418.2520,-0.001768
1420.1157,-0.001623
1421.9794,-0.001622
1423.8431,-0.001766
1425.7067,-0.001803
1427.5704,-0.001909
1429.4341,-0.001926
1431.2977,-0.001891
1433.1614,-0.001873
1435.0251,-0.001932
1436.8887,-0.001882
1438.7524,-0.001697
1440.6161,-0.001833
1442.4797,-0.001902
1444.3434,-0.001888
1446.2071,-0.001939
1448.0707,-0.001919
1449.9344,-0.001861
1451.7981,-0.001915
1453.6618,-0.001874
1455.5254,-0.001946
1457.3891,-0.001772
1459.2528,-0.001620
1461.1164,-0.001795
1462.9801,-0.001971
1464.8438,-0.002019
1466.7074,-0.001971
1468.5711,-0.002016
1470.4348,-0.002141
1472.2984,-0.002145
1474.1621,-0.001985
1476.0258,-0.002059
1477.8895,-0.002005
1479.7531,-0.002053
1481.6168,-0.002120
1483.4805,-0.002116
1485.3441,-0.002187
1487.2078,-0.002179
1489.0715,-0.002181
1490.9351,-0.002108
1492.7988,-0.002008
1494.6625,-0.002130
1496.5261,-0.002036
1498.3898,-0.001925
1500.2535,-0.002017
1502.1171,-0.001997
1503.9808,-0.002024
1505.8445,-0.002022
1507.7082,-0.001485
1509.5718,-0.001437
1511.4355,-0.001649
1513.2992,-0.001662
1515.1628,-0.001736
1517.0265,-0.001676
1518.8902,-0.001458
1520.7538,-0.001524
1522.6175,-0.001249
1524.4812,-0.001273
1526.3448,-0.001397
1528.2085,-0.001357
1530.0722,-0.001384
1531.9359,-0.001520
1533.7995,-0.001492
1535.6632,-0.001340
1537.5269,-0.001594
1539.3905,-0.001606
1541.2542,-0.001094
1543.1179,-0.001046
1544.9815,-0.001108
1546.8452,-0.001104
1548.7089,-0.001360
1550.5725,-0.001459
1552.4362,-0.001484
1554.2999,-0.001514
1556.1635,-0.001424
1558.0272,-0.001646
1559.8909,-0.001057
1561.7546,-0.000964
1563.6182,-0.001409
1565.4819,-0.001585
1567.3456,-0.001711
1569.2092,-0.001819
1571.0729,-0.001600
1572.9366,-0.001715
1574.8002,-0.001896
1576.6639,-0.001710
1578.5276,-0.001513
1580.3912,-0.001652
1582.2549,-0.001771
1584.1186,-0.001849
1585.9822,-0.001830
1587.8459,-0.001809
1589.7096,-0.001818
1591.5733,-0.001826
1593.4369,-0.001833
1595.3006,-0.001826
1597.1643,-0.001810
1599.0279,-0.001830
1600.8916,-0.001837
1602.7553,-0.001848
1604.6189,-0.001880
1606.4826,-0.001869
1608.3463,-0.001934
1610.2099,-0.001928
1612.0736,-0.001834
1613.9373,-0.001798
1615.8010,-0.001953
1617.6646,-0.001744
1619.5283,-0.001563
1621.3920,-0.001678
1623.2556,-0.001770
1625.1193,-0.001548
1626.9830,-0.001491
1628.8466,-0.001486
1630.7103,-0.001408
1632.5740,-0.001377
1634.4376,-0.001468
1636.3013,-0.000983
1638.1650,-0.000703
1640.0286,-0.000949
1641.8923,-0.000994
1643.7560,-0.001041
1645.6197,-0.001127
1647.4833,-0.000881
1649.3470,-0.000670
1651.2107,-0.000890
1653.0743,-0.000603
1654.9380,-0.000106
1656.8017,-0.000512
1658.6653,-0.000703
1660.5290,-0.000795
1662.3927,-0.000958
1664.2563,-0.000866
1666.1200,-0.000983
1667.9837,-0.001273
1669.8474,-0.001216
1671.7110,-0.001032
1673.5747,-0.001286
1675.4384,-0.001449
1677.3020,-0.001404
1679.1657,-0.001649
1681.0294,-0.001709
1682.8930,-0.001926
1684.7567,-0.001682
1686.6204,-0.001596
1688.4840,-0.001967
1690.3477,-0.002098
1692.2114,-0.002245
1694.0750,-0.002656
1695.9387,-0.002722
1697.8024,-0.002397
1699.6661,-0.002604
1701.5297,-0.002180
1703.3934,-0.002426
1705.2571,-0.002861
1707.1207,-0.002830
1708.9844,-0.002983
1710.8481,-0.003149
1712.7117,-0.003212
1714.5754,-0.003243
1716.4391,-0.003212
1718.3027,-0.002970
1720.1664,-0.002722
1722.0301,-0.002989
1723.8937,-0.003154
1725.7574,-0.003231
1727.6211,-0.003327
1729.4848,-0.003292
1731.3484,-0.003104
1733.2121,-0.003301
1735.0758,-0.002993
1736.9394,-0.002936
1738.8031,-0.003288
1740.6668,-0.003192
1742.5304,-0.003138
1744.3941,-0.003193
1746.2578,-0.003210
1748.1214,-0.003191
1749.9851,-0.003126
1751.8488,-0.003070
1753.7125,-0.003062
1755.5761,-0.003264
1757.4398,-0.003180
1759.3035,-0.003184
1761.1671,-0.003350
1763.0308,-0.003195
1764.8945,-0.003148
1766.7581,-0.003341
1768.6218,-0.003318
1770.4855,-0.003400
1772.3491,-0.003247
1774.2128,-0.003003
1776.0765,-0.003145
1777.9401,-0.003185
1779.8038,-0.003195
1781.6675,-0.003076
1783.5312,-0.003133
1785.3948,-0.003137
1787.2585,-0.003065
1789.1222,-0.003138
1790.9858,-0.003190
1792.8495,-0.003088
1794.7132,-0.003039
1796.5768,-0.003070
1798.4405,-0.003076
1800.3042,-0.003090
1802.1678,-0.003074
1804.0315,-0.003150
1805.8952,-0.003224
1807.7589,-0.003185
1809.6225,-0.003260
1811.4862,-0.003318
1813.3499,-0.003390
1815.2135,-0.003467
1817.0772,-0.003448
1818.9409,-0.003257
1820.8045,-0.003168
1822.6682,-0.003198
1824.5319,-0.003240
1826.3955,-0.003085
1828.2592,-0.003029
1830.1229,-0.002962
1831.9865,-0.002907
1833.8502,-0.002982
1835.7139,-0.003083
1837.5776,-0.003123
1839.4412,-0.003059
1841.3049,-0.003159
1843.1686,-0.003347
1845.0322,-0.003068
1846.8959,-0.002904
1848.7596,-0.002952
1850.6232,-0.002952
1852.4869,-0.003172
1854.3506,-0.003174
1856.2142,-0.002983
1858.0779,-0.002818
1859.9416,-0.002987
1861.8052,-0.003160
1863.6689,-0.003119
1865.5326,-0.003075
1867.3963,-0.003074
1869.2599,-0.002853
1871.1236,-0.002730
1872.9873,-0.002889
1874.8509,-0.003025
1876.7146,-0.003175
1878.5783,-0.003252
1880.4419,-0.003236
1882.3056,-0.003219
1884.1693,-0.003203
1886.0329,-0.003171
1887.8966,-0.003152
1889.7603,-0.003016
1891.6240,-0.002826
1893.4876,-0.003004
1895.3513,-0.002989
1897.2150,-0.002888
1899.0786,-0.002967
1900.9423,-0.003132
1902.8060,-0.003128
1904.6696,-0.003022
1906.5333,-0.002997
1908.3970,-0.002757
1910.2606,-0.002669
1912.1243,-0.002927
1913.9880,-0.003025
1915.8516,-0.002998
1917.7153,-0.002920
1919.5790,-0.002871
1921.4427,-0.003007
1923.3063,-0.003079
1925.1700,-0.003029
1927.0337,-0.003059
1928.8973,-0.003244
1930.7610,-0.003102
1932.6247,-0.002579
1934.4883,-0.002606
1936.3520,-0.002918
1938.2157,-0.002887
1940.0793,-0.003052
1941.9430,-0.002966
1943.8067,-0.002614
1945.6704,-0.002758
1947.5340,-0.002712
1949.3977,-0.002616
1951.2614,-0.002831
1953.1250,-0.002914
1954.9887,-0.002514
1956.8524,-0.002658
1958.7160,-0.002952
1960.5797,-0.002642
1962.4434,-0.002532
1964.3070,-0.002490
1966.1707,-0.001743
1968.0344,-0.001484
1969.8980,-0.002085
1971.7617,-0.001910
1973.6254,-0.001589
1975.4891,-0.001776
1977.3527,-0.001373
1979.2164,-0.000262
1981.0801,-0.000215
1982.9437,-0.000650
1984.8074,-0.001028
1986.6711,-0.001872
1988.5347,-0.001920
1990.3984,-0.001132
1992.2621,-0.000893
1994.1257,-0.001459
1995.9894,-0.001695
1997.8531,-0.002000
1999.7167,-0.002079
2001.5804,-0.002137
2003.4441,-0.002337
2005.3078,-0.002826
2007.1714,-0.002501
2009.0351,-0.001969
2010.8988,-0.002099
2012.7624,-0.001718
2014.6261,-0.001384
2016.4898,-0.001701
2018.3534,-0.001663
2020.2171,-0.001077
2022.0808,-0.000706
2023.9444,-0.000999
2025.8081,-0.001303
2027.6718,-0.001474
2029.5355,-0.001201
2031.3991,-0.001114
2033.2628,-0.001008
2035.1265,-0.001179
2036.9901,-0.001260
2038.8538,-0.000649
2040.7175,-0.000427
2042.5811,-0.000768
2044.4448,-0.001028
2046.3085,-0.001043
2048.1721,-0.000664
2050.0358,-0.000247
2051.8995,-0.001008
2053.7631,-0.001687
2055.6268,-0.001558
2057.4905,-0.001777
2059.3542,-0.002008
2061.2178,-0.001836
2063.0815,-0.001379
2064.9452,-0.001266
2066.8088,-0.001481
2068.6725,-0.001632
2070.5362,-0.001801
2072.3998,-0.001845
2074.2635,-0.001832
2076.1272,-0.001790
2077.9908,-0.001741
2079.8545,-0.001828
2081.7182,-0.001902
2083.5819,-0.001953
2085.4455,-0.002130
2087.3092,-0.002331
2089.1729,-0.002491
2091.0365,-0.002679
2092.9002,-0.002720
2094.7639,-0.002547
2096.6275,-0.002241
2098.4912,-0.002278
2100.3549,-0.002182
2102.2185,-0.001851
2104.0822,-0.001756
2105.9459,-0.002048
2107.8095,-0.002336
2109.6732,-0.002312
2111.5369,-0.002366
2113.4006,-0.002382
2115.2642,-0.002399
2117.1279,-0.002524
2118.9916,-0.002944
2120.8552,-0.003114
2122.7189,-0.002765
2124.5826,-0.002822
2126.4462,-0.003332
2128.3099,-0.003799
2130.1736,-0.003839
2132.0372,-0.003803
2133.9009,-0.003810
2135.7646,-0.003351
2137.6282,-0.002735
2139.4919,-0.002853
2141.3556,-0.003131
2143.2193,-0.003070
2145.0829,-0.003103
2146.9466,-0.002966
2148.8103,-0.002731
2150.6739,-0.003318
2152.5376,-0.003769
2154.4013,-0.003648
2156.2649,-0.003502
2158.1286,-0.002770
2159.9923,-0.000772
2161.8559,0.000266
2163.7196,0.000378
2165.5833,0.000356
2167.4470,-0.000563
2169.3106,-0.001297
2171.1743,-0.000863
2173.0380,-0.000949
2174.9016,-0.000968
2176.7653,-0.000968
2178.6290,-0.001571
2180.4926,-0.002050
2182.3563,-0.001521
2184.2200,-0.000427
2186.0836,-0.000453
2187.9473,-0.000790
2189.8110,-0.000486
2191.6746,-0.000721
2193.5383,-0.001324
2195.4020,-0.001470
2197.2657,-0.001555
2199.1293,-0.001608
2200.9930,-0.001253
2202.8567,-0.001025
2204.7203,-0.001302
2206.5840,-0.001862
2208.4477,-0.001858
2210.3113,-0.001522
2212.1750,-0.001039
2214.0387,-0.000946
2215.9023,-0.001346
2217.7660,-0.001572
2219.6297,-0.001765
2221.4934,-0.001911
2223.3570,-0.001705
2225.2207,-0.001546
2227.0844,-0.001798
2228.9480,-0.001693
2230.8117,-0.001365
2232.6754,-0.001172
2234.5390,-0.001258
2236.4027,-0.001607
2238.2664,-0.001597
2240.1300,-0.001765
2241.9937,-0.002003
2243.8574,-0.001884
2245.7210,-0.001925
2247.5847,-0.001982
2249.4484,-0.002021
2251.3121,-0.002117
2253.1757,-0.001901
2255.0394,-0.001582
2256.9031,-0.001451
2258.7667,-0.001568
2260.6304,-0.001635
2262.4941,-0.001540
2264.3577,-0.001448
2266.2214,-0.001562
2268.0851,-0.001638
2269.9487,-0.001546
2271.8124,-0.001378
2273.6761,-0.001526
2275.5397,-0.001625
2277.4034,-0.001377
2279.2671,-0.001149
2281.1308,-0.001170
2282.9944,-0.001151
2284.8581,-0.001059
2286.7218,-0.001252
2288.5854,-0.001519
2290.4491,-0.001587
2292.3128,-0.001613
2294.1764,-0.001734
2296.0401,-0.001974
2297.9038,-0.002023
2299.7674,-0.001881
2301.6311,-0.001838
2303.4948,-0.001850
2305.3585,-0.001775
2307.2221,-0.001749
2309.0858,-0.001738
2310.9495,-0.001667
2312.8131,-0.001689
2314.6768,-0.001723
2316.5405,-0.001694
2318.4041,-0.001655
2320.2678,-0.001380
2322.1315,-0.001007
2323.9951,-0.000993
2325.8588,-0.001570
2327.7225,-0.002215
2329.5861,-0.002380
2331.4498,-0.002362
2333.3135,-0.002488
2335.1772,-0.002653
2337.0408,-0.002423
2338.9045,-0.002157
2340.7682,-0.001932
2342.6318,-0.001762
2344.4955,-0.001962
2346.3592,-0.002076
2348.2228,-0.002258
2350.0865,-0.002626
2351.9502,-0.003092
2353.8138,-0.003411
2355.6775,-0.002797
2357.5412,-0.002152
2359.4049,-0.002097
2361.2685,-0.002164
2363.1322,-0.002234
2364.9959,-0.002317
2366.8595,-0.002331
2368.7232,-0.001989
2370.5869,-0.001850
2372.4505,-0.002118
2374.3142,-0.002457
2376.1779,-0.002589
2378.0415,-0.002629
2379.9052,-0.002637
2381.7689,-0.002675
2383.6325,-0.002886
2385.4962,-0.003120
2387.3599,-0.003156
2389.2236,-0.003174
2391.0872,-0.003224
2392.9509,-0.003204
2394.8146,-0.003190
2396.6782,-0.003204
2398.5419,-0.003157
2400.4056,-0.003137
2402.2692,-0.003154
2404.1329,-0.003081
2405.9966,-0.002969
2407.8602,-0.002871
2409.7239,-0.002817
2411.5876,-0.002922
2413.4512,-0.003019
2415.3149,-0.002916
2417.1786,-0.002868
2419.0423,-0.002862
2420.9059,-0.002801
2422.7696,-0.002772
2424.6333,-0.002733
2426.4969,-0.002702
2428.3606,-0.002698
2430.2243,-0.002726
2432.0879,-0.002768
2433.9516,-0.002773
2435.8153,-0.002737
2437.6789,-0.002707
2439.5426,-0.002722
2441.4063,-0.002741
2443.2700,-0.002608
2445.1336,-0.002460
2446.9973,-0.002466
2448.8610,-0.002446
2450.7246,-0.002356
2452.5883,-0.002370
2454.4520,-0.002454
2456.3156,-0.002462
2458.1793,-0.002483
2460.0430,-0.002560
2461.9066,-0.002588
2463.7703,-0.002494
2465.6340,-0.002528
2467.4976,-0.002639
2469.3613,-0.002660
2471.2250,-0.002686
2473.0887,-0.002694
2474.9523,-0.002644
2476.8160,-0.002633
2478.6797,-0.002702
2480.5433,-0.002709
2482.4070,-0.002695
2484.2707,-0.002657
2486.1343,-0.002600
2487.9980,-0.002671
2489.8617,-0.002704
2491.7253,-0.002563
2493.5890,-0.002577
2495.4527,-0.002713
2497.3164,-0.002569
2499.1800,-0.002453
2501.0437,-0.002616
2502.9074,-0.002744
2504.7710,-0.002711
2506.6347,-0.002662
2508.4984,-0.002617
2510.3620,-0.002583
2512.2257,-0.002595
2514.0894,-0.002644
2515.9530,-0.002699
2517.8167,-0.002589
2519.6804,-0.002431
2521.5440,-0.002510
2523.4077,-0.002680
2525.2714,-0.002565
2527.1351,-0.002435
2528.9987,-0.002608
2530.8624,-0.002686
2532.7261,-0.002594
2534.5897,-0.002533
2536.4534,-0.002496
2538.3171,-0.002608
2540.1807,-0.002829
2542.0444,-0.002786
2543.9081,-0.002509
2545.7717,-0.002494
2547.6354,-0.002649
2549.4991,-0.002687
2551.3627,-0.002590
2553.2264,-0.002378
2555.0901,-0.002361
2556.9538,-0.002588
2558.8174,-0.002635
2560.6811,-0.002507
2562.5448,-0.002473
2564.4084,-0.002491
2566.2721,-0.002451
2568.1358,-0.002350
2569.9994,-0.002318
2571.8631,-0.002373
2573.7268,-0.002481
2575.5904,-0.002518
2577.4541,-0.002450
2579.3178,-0.002371
2581.1815,-0.002309
2583.0451,-0.002360
2584.9088,-0.002463
2586.7725,-0.002511
2588.6361,-0.002442
2590.4998,-0.002335
2592.3635,-0.002313
2594.2271,-0.002304
2596.0908,-0.002234
2597.9545,-0.002139
2599.8181,-0.002126
2601.6818,-0.002253
2603.5455,-0.002366
2605.4091,-0.002371
2607.2728,-0.002292
2609.1365,-0.002219
2611.0002,-0.002256
2612.8638,-0.002270
2614.7275,-0.002220
2616.5912,-0.002230
2618.4548,-0.002230
2620.3185,-0.002196
2622.1822,-0.002150
2624.0458,-0.002093
2625.9095,-0.002125
2627.7732,-0.002201
2629.6368,-0.002198
2631.5005,-0.002136
2633.3642,-0.002120
2635.2279,-0.002175
2637.0915,-0.002222
2638.9552,-0.002227
2640.8189,-0.002217
2642.6825,-0.002219
2644.5462,-0.002272
2646.4099,-0.002358
2648.2735,-0.002338
2650.1372,-0.002250
2652.0009,-0.002298
2653.8645,-0.002442
2655.7282,-0.002531
2657.5919,-0.002589
2659.4555,-0.002679
2661.3192,-0.002758
2663.1829,-0.002908
2665.0466,-0.003052
2666.9102,-0.003048
2668.7739,-0.003039
2670.6376,-0.003081
2672.5012,-0.003093
2674.3649,-0.003068
2676.2286,-0.003046
2678.0922,-0.002966
2679.9559,-0.002955
2681.8196,-0.003056
2683.6832,-0.003062
2685.5469,-0.003037
2687.4106,-0.003114
2689.2742,-0.003153
2691.1379,-0.003115
2693.0016,-0.003078
2694.8653,-0.003067
2696.7289,-0.003064
2698.5926,-0.002999
2700.4563,-0.002971
2702.3199,-0.003012
2704.1836,-0.003066
2706.0473,-0.003116
2707.9109,-0.003101
2709.7746,-0.003073
2711.6383,-0.003070
2713.5019,-0.003049
2715.3656,-0.003001
2717.2293,-0.002996
2719.0930,-0.002984
2720.9566,-0.002957
2722.8203,-0.002952
2724.6840,-0.002960
2726.5476,-0.002951
2728.4113,-0.002942
2730.2750,-0.002852
2732.1386,-0.002769
2734.0023,-0.002833
2735.8660,-0.002918
2737.7296,-0.002954
2739.5933,-0.002999
2741.4570,-0.002996
2743.3206,-0.002927
2745.1843,-0.002890
2747.0480,-0.002939
2748.9117,-0.002982
2750.7753,-0.002915
2752.6390,-0.002858
2754.5027,-0.002863
2756.3663,-0.002885
2758.2300,-0.002911
2760.0937,-0.002869
2761.9573,-0.002798
2763.8210,-0.002828
2765.6847,-0.002930
2767.5483,-0.002900
2769.4120,-0.002811
2771.2757,-0.002818
2773.1394,-0.002831
2775.0030,-0.002792
2776.8667,-0.002813
2778.7304,-0.002838
2780.5940,-0.002806
2782.4577,-0.002773
2784.3214,-0.002783
2786.1850,-0.002791
2788.0487,-0.002767
2789.9124,-0.002799
2791.7760,-0.002845
2793.6397,-0.002824
2795.5034,-0.002819
2797.3670,-0.002829
2799.2307,-0.002788
2801.0944,-0.002762
2802.9581,-0.002796
2804.8217,-0.002799
2806.6854,-0.002749
2808.5491,-0.002725
2810.4127,-0.002729
2812.2764,-0.002694
2814.1401,-0.002634
2816.0037,-0.002673
2817.8674,-0.002784
2819.7311,-0.002842
2821.5947,-0.002809
2823.4584,-0.002753
2825.3221,-0.002769
2827.1857,-0.002778
2829.0494,-0.002694
2830.9131,-0.002629
2832.7768,-0.002653
2834.6404,-0.002662
2836.5041,-0.002614
2838.3678,-0.002587
2840.2314,-0.002560
2842.0951,-0.002516
2843.9588,-0.002583
2845.8224,-0.002658
2847.6861,-0.002559
2849.5498,-0.002394
2851.4134,-0.002319
2853.2771,-0.002378
2855.1408,-0.002487
2857.0045,-0.002496
2858.8681,-0.002399
2860.7318,-0.002301
2862.5955,-0.002300
2864.4591,-0.002354
2866.3228,-0.002294
2868.1865,-0.002236
2870.0501,-0.002258
2871.9138,-0.002216
2873.7775,-0.002143
2875.6411,-0.002133
2877.5048,-0.002145
2879.3685,-0.002120
2881.2321,-0.002036
2883.0958,-0.002059
2884.9595,-0.002089
2886.8232,-0.002031
2888.6868,-0.002032
2890.5505,-0.002086
2892.4142,-0.002018
2894.2778,-0.001939
2896.1415,-0.001923
2898.0052,-0.002000
2899.8688,-0.002000
2901.7325,-0.001955
2903.5962,-0.001913
2905.4598,-0.001888
2907.3235,-0.001963
2909.1872,-0.001947
2911.0509,-0.001844
2912.9145,-0.001833
2914.7782,-0.001921
2916.6419,-0.001902
2918.5055,-0.001799
2920.3692,-0.001829
2922.2329,-0.001886
2924.0965,-0.001782
2925.9602,-0.001719
2927.8239,-0.001806
2929.6875,-0.001807
2931.5512,-0.001784
2933.4149,-0.001806
2935.2785,-0.001818
2937.1422,-0.001766
2939.0059,-0.001761
2940.8696,-0.001888
2942.7332,-0.001930
2944.5969,-0.001821
2946.4606,-0.001720
2948.3242,-0.001818
2950.1879,-0.001909
2952.0516,-0.001813
2953.9152,-0.001702
2955.7789,-0.001660
2957.6426,-0.001732
2959.5062,-0.001840
2961.3699,-0.001814
2963.2336,-0.001791
2965.0972,-0.001683
2966.9609,-0.001629
2968.8246,-0.001670
2970.6883,-0.001724
2972.5519,-0.001692
2974.4156,-0.001770
2976.2793,-0.001856
2978.1429,-0.001838
2980.0066,-0.001875
2981.8703,-0.001956
2983.7339,-0.001917
2985.5976,-0.001841
2987.4613,-0.001846
2989.3249,-0.001822
2991.1886,-0.001897
2993.0523,-0.002009
2994.9160,-0.001986
2996.7796,-0.001903
2998.6433,-0.001910
3000.5070,-0.001886
3002.3706,-0.001971
3004.2343,-0.002124
3006.0980,-0.002032
3007.9616,-0.002015
3009.8253,-0.002132
3011.6890,-0.002192
3013.5526,-0.002248
3015.4163,-0.002270
3017.2800,-0.002289
3019.1436,-0.002314
3021.0073,-0.002232
3022.8710,-0.002201
3024.7347,-0.002160
3026.5983,-0.002141
3028.4620,-0.002232
3030.3257,-0.002322
3032.1893,-0.002290
3034.0530,-0.002228
3035.9167,-0.002274
3037.7803,-0.002333
3039.6440,-0.002338
3041.5077,-0.002281
3043.3713,-0.002262
3045.2350,-0.002264
3047.0987,-0.002245
3048.9624,-0.002242
3050.8260,-0.002273
3052.6897,-0.002340
3054.5534,-0.002391
3056.4170,-0.002223
3058.2807,-0.002152
3060.1444,-0.002277
3062.0080,-0.002316
3063.8717,-0.002307
3065.7354,-0.002224
3067.5990,-0.002117
3069.4627,-0.002129
3071.3264,-0.002188
3073.1900,-0.002186
3075.0537,-0.002269
3076.9174,-0.002353
3078.7811,-0.002363
3080.6447,-0.002243
3082.5084,-0.002103
3084.3721,-0.002157
3086.2357,-0.002234
3088.0994,-0.002194
3089.9631,-0.002137
3091.8267,-0.002101
3093.6904,-0.002109
3095.5541,-0.002202
3097.4177,-0.002173
3099.2814,-0.002204
3101.1451,-0.002303
3103.0087,-0.002383
3104.8724,-0.002287
3106.7361,-0.002173
3108.5998,-0.002338
3110.4634,-0.002357
3112.3271,-0.002247
3114.1908,-0.002232
3116.0544,-0.002266
3117.9181,-0.002254
3119.7818,-0.002243
3121.6454,-0.002163
3123.5091,-0.002145
3125.3728,-0.002146
3127.2364,-0.002196
3129.1001,-0.002276
3130.9638,-0.002329
3132.8275,-0.002206
3134.6911,-0.002000
3136.5548,-0.001942
3138.4185,-0.001927
3140.2821,-0.001982
3142.1458,-0.002137
3144.0095,-0.002090
3145.8731,-0.001968
3147.7368,-0.002143
3149.6005,-0.002121
3151.4641,-0.001915
3153.3278,-0.001924
3155.1915,-0.002009
3157.0551,-0.002031
3158.9188,-0.002058
3160.7825,-0.001991
3162.6462,-0.001946
3164.5098,-0.001842
3166.3735,-0.001808
3168.2372,-0.001885
3170.1008,-0.001839
3171.9645,-0.001803
3173.8282,-0.001733
3175.6918,-0.001666
3177.5555,-0.001606
3179.4192,-0.001624
3181.2828,-0.001707
3183.1465,-0.001788
3185.0102,-0.001873
3186.8739,-0.001832
3188.7375,-0.001606
3190.6012,-0.001629
3192.4649,-0.001681
3194.3285,-0.001612
3196.1922,-0.001725
3198.0559,-0.001847
3199.9195,-0.001757
3201.7832,-0.001628
3203.6469,-0.001614
3205.5105,-0.001678
3207.3742,-0.001775
3209.2379,-0.001784
3211.1015,-0.001738
3212.9652,-0.001633
3214.8289,-0.001619
3216.6926,-0.001681
3218.5562,-0.001636
3220.4199,-0.001634
3222.2836,-0.001734
3224.1472,-0.001685
3226.0109,-0.001486
3227.8746,-0.001433
3229.7382,-0.001695
3231.6019,-0.001859
3233.4656,-0.001734
3235.3292,-0.001623
3237.1929,-0.001567
3239.0566,-0.001694
3240.9202,-0.001875
3242.7839,-0.001814
3244.6476,-0.001644
3246.5113,-0.001512
3248.3749,-0.001514
3250.2386,-0.001599
3252.1023,-0.001635
3253.9659,-0.001684
3255.8296,-0.001564
3257.6933,-0.001583
3259.5569,-0.001583
3261.4206,-0.001464
3263.2843,-0.001499
3265.1479,-0.001581
3267.0116,-0.001586
3268.8753,-0.001653
3270.7390,-0.001561
3272.6026,-0.001326
3274.4663,-0.001344
3276.3300,-0.001534
3278.1936,-0.001512
3280.0573,-0.001274
3281.9210,-0.001261
3283.7846,-0.001529
3285.6483,-0.001534
3287.5120,-0.001511
3289.3756,-0.001539
3291.2393,-0.001524
3293.1030,-0.001475
3294.9666,-0.001367
3296.8303,-0.001261
3298.6940,-0.001302
3300.5577,-0.001226
3302.4213,-0.001275
3304.2850,-0.001466
3306.1487,-0.001628
3308.0123,-0.001600
3309.8760,-0.001585
3311.7397,-0.001652
3313.6033,-0.001548
3315.4670,-0.001501
3317.3307,-0.001473
3319.1943,-0.001338
3321.0580,-0.001417
3322.9217,-0.001505
3324.7854,-0.001608
3326.6490,-0.001724
3328.5127,-0.001748
3330.3764,-0.001721
3332.2400,-0.001669
3334.1037,-0.001685
3335.9674,-0.001754
3337.8310,-0.001721
3339.6947,-0.001680
3341.5584,-0.001623
3343.4220,-0.001520
3345.2857,-0.001587
3347.1494,-0.001676
3349.0130,-0.001761
3350.8767,-0.001713
3352.7404,-0.001729
3354.6041,-0.001627
3356.4677,-0.001460
3358.3314,-0.001565
3360.1951,-0.001818
3362.0587,-0.001790
3363.9224,-0.001758
3365.7861,-0.001882
3367.6497,-0.001963
3369.5134,-0.001847
3371.3771,-0.001561
3373.2407,-0.001490
3375.1044,-0.001858
3376.9681,-0.002048
3378.8317,-0.001937
3380.6954,-0.001855
3382.5591,-0.001896
3384.4228,-0.002032
3386.2864,-0.002084
3388.1501,-0.002175
3390.0138,-0.002038
3391.8774,-0.001956
3393.7411,-0.002064
3395.6048,-0.002082
3397.4684,-0.002071
3399.3321,-0.002199
3401.1958,-0.002182
3403.0594,-0.002157
3404.9231,-0.002172
3406.7868,-0.002018
3408.6505,-0.002074
3410.5141,-0.002319
3412.3778,-0.002275
3414.2415,-0.002140
3416.1051,-0.002160
3417.9688,-0.002135
3419.8325,-0.002247
3421.6961,-0.002307
3423.5598,-0.002403
3425.4235,-0.002254
3427.2871,-0.002303
3429.1508,-0.002576
3431.0145,-0.002462
3432.8781,-0.002233
3434.7418,-0.002249
3436.6055,-0.002468
3438.4692,-0.002732
3440.3328,-0.002651
3442.1965,-0.002264
3444.0602,-0.002220
3445.9238,-0.002681
3447.7875,-0.002741
3449.6512,-0.002370
3451.5148,-0.002313
3453.3785,-0.002601
3455.2422,-0.002578
3457.1058,-0.002343
3458.9695,-0.002546
3460.8332,-0.002691
3462.6969,-0.002618
3464.5605,-0.002655
3466.4242,-0.002828
3468.2879,-0.003028
3470.1515,-0.002949
3472.0152,-0.002630
3473.8789,-0.002641
3475.7425,-0.002769
3477.6062,-0.002882
3479.4699,-0.002962
3481.3335,-0.003001
3483.1972,-0.002873
3485.0609,-0.003157
3486.9245,-0.003297
3488.7882,-0.003196
3490.6519,-0.003089
3492.5156,-0.002932
3494.3792,-0.002998
3496.2429,-0.003203
3498.1066,-0.003179
3499.9702,-0.003071
3501.8339,-0.003042
3503.6976,-0.003196
3505.5612,-0.003022
3507.4249,-0.003027
3509.2886,-0.003328
3511.1522,-0.003013
3513.0159,-0.002992
3514.8796,-0.003226
3516.7432,-0.003080
3518.6069,-0.003193
3520.4706,-0.003363
3522.3343,-0.003320
3524.1979,-0.003433
3526.0616,-0.003484
3527.9253,-0.003438
3529.7889,-0.003215
3531.6526,-0.003026
3533.5163,-0.003060
3535.3799,-0.003271
3537.2436,-0.003538
3539.1073,-0.003573
3540.9709,-0.003328
3542.8346,-0.003363
3544.6983,-0.003472
3546.5620,-0.003289
3548.4256,-0.003026
3550.2893,-0.003126
3552.1530,-0.003416
3554.0166,-0.003296
3555.8803,-0.003391
3557.7440,-0.003755
3559.6076,-0.003472
3561.4713,-0.003073
3563.3350,-0.003260
3565.1986,-0.003324
3567.0623,-0.003196
3568.9260,-0.002837
3570.7896,-0.002982
3572.6533,-0.003388
3574.5170,-0.003426
3576.3807,-0.003167
3578.2443,-0.002999
3580.1080,-0.003193
3581.9717,-0.003562
3583.8353,-0.003812
3585.6990,-0.003954
3587.5627,-0.003742
3589.4263,-0.002964
3591.2900,-0.002500
3593.1537,-0.002809
3595.0173,-0.003074
3596.8810,-0.003019
3598.7447,-0.002962
3600.6084,-0.003095
3602.4720,-0.003065
3604.3357,-0.003005
3606.1994,-0.003274
3608.0630,-0.003336
3609.9267,-0.003127
3611.7904,-0.003251
3613.6540,-0.003154
3615.5177,-0.002944
3617.3814,-0.003027
3619.2450,-0.002904
3621.1087,-0.002763
3622.9724,-0.002876
3624.8360,-0.003316
3626.6997,-0.003630
3628.5634,-0.003407
3630.4271,-0.002525
3632.2907,-0.002358
3634.1544,-0.002683
3636.0181,-0.002657
3637.8817,-0.002675
3639.7454,-0.002708
3641.6091,-0.003119
3643.4727,-0.003619
3645.3364,-0.003701
3647.2001,-0.003369
3649.0637,-0.002732
3650.9274,-0.002187
3652.7911,-0.001951
3654.6547,-0.002499
3656.5184,-0.002790
3658.3821,-0.002308
3660.2458,-0.002511
3662.1094,-0.002825
3663.9731,-0.002808
3665.8368,-0.003096
3667.7004,-0.003749
3669.5641,-0.003935
3671.4278,-0.003231
3673.2914,-0.002697
3675.1551,-0.003039
3677.0188,-0.002509
3678.8824,-0.002194
3680.7461,-0.002494
3682.6098,-0.002777
3684.4735,-0.003123
3686.3371,-0.003303
3688.2008,-0.003182
3690.0645,-0.002567
3691.9281,-0.002272
3693.7918,-0.002358
3695.6555,-0.002659
3697.5191,-0.002907
3699.3828,-0.003088
3701.2465,-0.003124
3703.1101,-0.002758
3704.9738,-0.002800
3706.8375,-0.003150
3708.7011,-0.003295
3710.5648,-0.003178
3712.4285,-0.002649
3714.2922,-0.002174
3716.1558,-0.002456
3718.0195,-0.002956
3719.8832,-0.003023
3721.7468,-0.003130
3723.6105,-0.003146
3725.4742,-0.003008
3727.3378,-0.002920
3729.2015,-0.002839
3731.0652,-0.003242
3732.9288,-0.003551
3734.7925,-0.003136
3736.6562,-0.002366
3738.5199,-0.002184
3740.3835,-0.002749
3742.2472,-0.003174
3744.1109,-0.003400
3745.9745,-0.002783
3747.8382,-0.002659
3749.7019,-0.002910
3751.5655,-0.002392
3753.4292,-0.002024
3755.2929,-0.002253
3757.1565,-0.002686
3759.0202,-0.003006
3760.8839,-0.002927
3762.7475,-0.002790
3764.6112,-0.003138
3766.4749,-0.003121
3768.3386,-0.003029
3770.2022,-0.002989
3772.0659,-0.002576
3773.9296,-0.002773
3775.7932,-0.003172
3777.6569,-0.003260
3779.5206,-0.003205
3781.3842,-0.002800
3783.2479,-0.002866
3785.1116,-0.003114
3786.9752,-0.003025
3788.8389,-0.003045
3790.7026,-0.003126
3792.5662,-0.003133
3794.4299,-0.003266
3796.2936,-0.003419
3798.1573,-0.003259
3800.0209,-0.003124
3801.8846,-0.003097
3803.7483,-0.002698
3805.6119,-0.002779
3807.4756,-0.002890
3809.3393,-0.002716
3811.2029,-0.003018
3813.0666,-0.003409
3814.9303,-0.003554
3816.7939,-0.003414
3818.6576,-0.003052
3820.5213,-0.003253
3822.3850,-0.002902
3824.2486,-0.002521
3826.1123,-0.002990
3827.9760,-0.003281
3829.8396,-0.003267
3831.7033,-0.003425
3833.5670,-0.003378
3835.4306,-0.003283
3837.2943,-0.003377
3839.1580,-0.003054
3841.0216,-0.002666
3842.8853,-0.002746
3844.7490,-0.002901
3846.6126,-0.003112
3848.4763,-0.003464
3850.3400,-0.003745
3852.2037,-0.003815
3854.0673,-0.003362
3855.9310,-0.002399
3857.7947,-0.002435
3859.6583,-0.003076
3861.5220,-0.003559
3863.3857,-0.003590
3865.2493,-0.003407
3867.1130,-0.003232
3868.9767,-0.003455
3870.8403,-0.003218
3872.7040,-0.002880
3874.5677,-0.003058
3876.4314,-0.002869
3878.2950,-0.003013
3880.1587,-0.003505
3882.0224,-0.003405
3883.8860,-0.003175
3885.7497,-0.003240
3887.6134,-0.003066
3889.4770,-0.003115
3891.3407,-0.003337
3893.2044,-0.003070
3895.0680,-0.002999
3896.9317,-0.003391
3898.7954,-0.003767
3900.6590,-0.003615
3902.5227,-0.003179
3904.3864,-0.002817
3906.2501,-0.002444
3908.1137,-0.002587
3909.9774,-0.003058
3911.8411,-0.003313
3913.7047,-0.003464
3915.5684,-0.003607
3917.4321,-0.003548
3919.2957,-0.003316
3921.1594,-0.003175
3923.0231,-0.003255
3924.8867,-0.003360
3926.7504,-0.003244
3928.6141,-0.003079
3930.4777,-0.003125
3932.3414,-0.003105
3934.2051,-0.003015
3936.0688,-0.003219
3937.9324,-0.003393
3939.7961,-0.003243
3941.6598,-0.003269
3943.5234,-0.003361
3945.3871,-0.003231
3947.2508,-0.003210
3949.1144,-0.003099
3950.9781,-0.003030
3952.8418,-0.003204
3954.7054,-0.003210
3956.5691,-0.003156
3958.4328,-0.003295
3960.2965,-0.003376
3962.1601,-0.003332
3964.0238,-0.003222
3965.8875,-0.003231
3967.7511,-0.003272
3969.6148,-0.003309
3971.4785,-0.003369
3973.3421,-0.003338
3975.2058,-0.003318
3977.0695,-0.003345
3978.9331,-0.003267
3980.7968,-0.003266
3982.6605,-0.003248
3984.5241,-0.003187
3986.3878,-0.003087
3988.2515,-0.003207
3990.1152,-0.003479
3991.9788,-0.003499
3993.8425,-0.003321
3995.7062,-0.003214
3997.5698,-0.003175
3999.4335,-0.003214
