#Wavenumber	Intensity
650.4205	0.074434
652.2841	0.075504
654.1478	0.074458
656.0115	0.072100
657.8751	0.071948
659.7388	0.071903
661.6025	0.070592
663.4661	0.069107
665.3298	0.068027
667.1935	0.068395
669.0571	0.070627
670.9208	0.069417
672.7845	0.069114
674.6481	0.069004
676.5118	0.068424
678.3755	0.067890
680.2392	0.068003
682.1028	0.067329
683.9665	0.066605
685.8302	0.066469
687.6938	0.065926
689.5575	0.065675
691.4212	0.065535
693.2848	0.064538
695.1485	0.063960
697.0122	0.063566
698.8758	0.063183
700.7395	0.062699
702.6032	0.062196
704.4669	0.061915
706.3305	0.061327
708.1942	0.060484
710.0579	0.060294
711.9215	0.060044
713.7852	0.059776
715.6489	0.059331
717.5125	0.058584
719.3762	0.057951
721.2399	0.057528
723.1035	0.056893
724.9672	0.056559
726.8309	0.056590
728.6945	0.056219
730.5582	0.055443
732.4219	0.055170
734.2856	0.054997
736.1492	0.054461
738.0129	0.053910
739.8766	0.053758
741.7402	0.053548
743.6039	0.052960
745.4676	0.052393
747.3312	0.052059
749.1949	0.051477
751.0586	0.051195
752.9222	0.050840
754.7859	0.050224
756.6496	0.049829
758.5132	0.049466
760.3769	0.048911
762.2406	0.048465
764.1043	0.048112
765.9679	0.047674
767.8316	0.047264
769.6953	0.047062
771.5589	0.046796
773.4226	0.046380
775.2863	0.045905
777.1499	0.045346
779.0136	0.044828
780.8773	0.044415
782.7409	0.043948
784.6046	0.043640
786.4683	0.043310
788.3320	0.042654
790.1956	0.042064
792.0593	0.041779
793.9230	0.041509
795.7866	0.041034
797.6503	0.040507
799.5140	0.039980
801.3776	0.039495
803.2413	0.039191
805.1050	0.038800
806.9686	0.038395
808.8323	0.038108
810.6960	0.037703
812.5596	0.037298
814.4233	0.036934
816.2870	0.036561
818.1507	0.036241
820.0143	0.035806
821.8780	0.035464
823.7417	0.035275
825.6053	0.034975
827.4690	0.034627
829.3327	0.034201
831.1963	0.033632
833.0600	0.033094
834.9237	0.032732
836.7873	0.032492
838.6510	0.032228
840.5147	0.031894
842.3784	0.031531
844.2420	0.031217
846.1057	0.030847
847.9694	0.030456
849.8330	0.030147
851.6967	0.029843
853.5604	0.029541
855.4240	0.029278
857.2877	0.029006
859.1514	0.028793
861.0150	0.028574
862.8787	0.028198
864.7424	0.027802
866.6060	0.027540
868.4697	0.027381
870.3334	0.027272
872.1971	0.027141
874.0607	0.026925
875.9244	0.026638
877.7881	0.026319
879.6517	0.026057
881.5154	0.025949
883.3791	0.025814
885.2427	0.025520
887.1064	0.025235
888.9701	0.025107
890.8337	0.024998
892.6974	0.024784
894.5611	0.024524
896.4247	0.024330
898.2884	0.024262
900.1521	0.024163
902.0158	0.023936
903.8794	0.023695
905.7431	0.023566
907.6068	0.023501
909.4704	0.023395
911.3341	0.023282
913.1978	0.023187
915.0614	0.023107
916.9251	0.023028
918.7888	0.022909
920.6524	0.022860
922.5161	0.022876
924.3798	0.022853
926.2435	0.022850
928.1071	0.022791
929.9708	0.022610
931.8345	0.022424
933.6981	0.022330
935.5618	0.022297
937.4255	0.022278
939.2891	0.022251
941.1528	0.022224
943.0165	0.022234
944.8801	0.022202
946.7438	0.022150
948.6075	0.022143
950.4711	0.022117
952.3348	0.022034
954.1985	0.021952
956.0622	0.021930
957.9258	0.021962
959.7895	0.021976
961.6532	0.021996
963.5168	0.022074
965.3805	0.022206
967.2442	0.022301
969.1078	0.022369
970.9715	0.022517
972.8352	0.022671
974.6988	0.022823
976.5625	0.023004
978.4262	0.023187
980.2899	0.023369
982.1535	0.023588
984.0172	0.023815
985.8809	0.023976
987.7445	0.024143
989.6082	0.024328
991.4719	0.024426
993.3355	0.024410
995.1992	0.024337
997.0629	0.024266
998.9265	0.024282
1000.7902	0.024331
1002.6539	0.024358
1004.5175	0.024421
1006.3812	0.024553
1008.2449	0.024734
1010.1086	0.024929
1011.9722	0.025103
1013.8359	0.025327
1015.6996	0.025671
1017.5632	0.026024
1019.4269	0.026344
1021.2906	0.026651
1023.1542	0.026958
1025.0179	0.027309
1026.8816	0.027652
1028.7452	0.027952
1030.6089	0.028246
1032.4726	0.028549
1034.3362	0.028846
1036.1999	0.029169
1038.0636	0.029501
1039.9273	0.029745
1041.7909	0.029985
1043.6546	0.030299
1045.5183	0.030529
1047.3819	0.030562
1049.2456	0.030459
1051.1093	0.030330
1052.9729	0.030165
1054.8366	0.030011
1056.7003	0.029988
1058.5639	0.030081
1060.4276	0.030187
1062.2913	0.030350
1064.1550	0.030556
1066.0186	0.030748
1067.8823	0.030995
1069.7460	0.031314
1071.6096	0.031583
1073.4733	0.031764
1075.3370	0.031970
1077.2006	0.032114
1079.0643	0.032133
1080.9280	0.032088
1082.7916	0.031940
1084.6553	0.031711
1086.5190	0.031446
1088.3826	0.031142
1090.2463	0.030809
1092.1100	0.030457
1093.9737	0.030107
1095.8373	0.029816
1097.7010	0.029515
1099.5647	0.029202
1101.4283	0.028931
1103.2920	0.028675
1105.1557	0.028380
1107.0193	0.028072
1108.8830	0.027811
1110.7467	0.027596
1112.6103	0.027362
1114.4740	0.027111
1116.3377	0.026834
1118.2014	0.026553
1120.0650	0.026279
1121.9287	0.025979
1123.7924	0.025690
1125.6560	0.025401
1127.5197	0.025089
1129.3834	0.024785
1131.2470	0.024485
1133.1107	0.024212
1134.9744	0.023937
1136.8380	0.023670
1138.7017	0.023455
1140.5654	0.023307
1142.4290	0.023167
1144.2927	0.022954
1146.1564	0.022707
1148.0201	0.022513
1149.8837	0.022367
1151.7474	0.022223
1153.6111	0.022091
1155.4747	0.021988
1157.3384	0.021876
1159.2021	0.021754
1161.0657	0.021665
1162.9294	0.021564
1164.7931	0.021470
1166.6567	0.021391
1168.5204	0.021279
1170.3841	0.021153
1172.2477	0.021019
1174.1114	0.020928
1175.9751	0.020834
1177.8388	0.020729
1179.7024	0.020684
1181.5661	0.020722
1183.4298	0.020782
1185.2934	0.020851
1187.1571	0.020913
1189.0208	0.021017
1190.8844	0.021145
1192.7481	0.021230
1194.6118	0.021320
1196.4754	0.021434
1198.3391	0.021525
1200.2028	0.021639
1202.0665	0.021750
1203.9301	0.021831
1205.7938	0.021919
1207.6575	0.021978
1209.5211	0.022012
1211.3848	0.022100
1213.2485	0.022201
1215.1121	0.022249
1216.9758	0.022276
1218.8395	0.022323
1220.7031	0.022358
1222.5668	0.022403
1224.4305	0.022490
1226.2941	0.022535
1228.1578	0.022521
1230.0215	0.022513
1231.8852	0.022531
1233.7488	0.022571
1235.6125	0.022568
1237.4762	0.022544
1239.3398	0.022547
1241.2035	0.022548
1243.0672	0.022504
1244.9308	0.022424
1246.7945	0.022342
1248.6582	0.022302
1250.5218	0.022212
1252.3855	0.022115
1254.2492	0.022043
1256.1129	0.021969
1257.9765	0.021904
1259.8402	0.021837
1261.7039	0.021749
1263.5675	0.021625
1265.4312	0.021505
1267.2949	0.021444
1269.1585	0.021411
1271.0222	0.021398
1272.8859	0.021363
1274.7495	0.021267
1276.6132	0.021207
1278.4769	0.021206
1280.3405	0.021227
1282.2042	0.021245
1284.0679	0.021184
1285.9316	0.021147
1287.7952	0.021205
1289.6589	0.021262
1291.5226	0.021278
1293.3862	0.021312
1295.2499	0.021358
1297.1136	0.021401
1298.9772	0.021473
1300.8409	0.021558
1302.7046	0.021612
1304.5682	0.021682
1306.4319	0.021773
1308.2956	0.021858
1310.1592	0.021922
1312.0229	0.021988
1313.8866	0.022047
1315.7503	0.022074
1317.6139	0.022162
1319.4776	0.022201
1321.3413	0.022086
1323.2049	0.021994
1325.0686	0.021945
1326.9323	0.021855
1328.7959	0.021835
1330.6596	0.021903
1332.5233	0.021885
1334.3869	0.021787
1336.2506	0.021782
1338.1143	0.022102
1339.9780	0.022498
1341.8416	0.022426
1343.7053	0.022214
1345.5690	0.022254
1347.4326	0.022284
1349.2963	0.022266
1351.1600	0.022245
1353.0236	0.022219
1354.8873	0.022166
1356.7510	0.022016
1358.6146	0.021863
1360.4783	0.021999
1362.3420	0.022412
1364.2056	0.022463
1366.0693	0.022208
1367.9330	0.022267
1369.7967	0.022325
1371.6603	0.022326
1373.5240	0.022764
1375.3877	0.023207
1377.2513	0.023180
1379.1150	0.023228
1380.9787	0.023245
1382.8423	0.023166
1384.7060	0.023317
1386.5697	0.023926
1388.4333	0.024344
1390.2970	0.024032
1392.1607	0.023921
1394.0244	0.024464
1395.8880	0.025071
1397.7517	0.025243
1399.6154	0.025447
1401.4790	0.025262
1403.3427	0.025179
1405.2064	0.025574
1407.0700	0.025569
1408.9337	0.025387
1410.7974	0.025297
1412.6610	0.025046
1414.5247	0.024603
1416.3884	0.024488
1418.2520	0.025030
1420.1157	0.025202
1421.9794	0.024392
1423.8431	0.023976
1425.7067	0.023650
1427.5704	0.023221
1429.4341	0.023255
1431.2977	0.023058
1433.1614	0.022617
1435.0251	0.022860
1436.8887	0.023935
1438.7524	0.023892
1440.6161	0.023274
1442.4797	0.023172
1444.3434	0.023105
1446.2071	0.023311
1448.0707	0.023706
1449.9344	0.023615
1451.7981	0.023094
1453.6618	0.022788
1455.5254	0.023411
1457.3891	0.025348
1459.2528	0.024816
1461.1164	0.023398
1462.9801	0.022872
1464.8438	0.023311
1466.7074	0.022951
1468.5711	0.021987
1470.4348	0.021755
1472.2984	0.022605
1474.1621	0.023010
1476.0258	0.022514
1477.8895	0.021999
1479.7531	0.021509
1481.6168	0.021342
1483.4805	0.021024
1485.3441	0.020751
1487.2078	0.021291
1489.0715	0.022327
1490.9351	0.022741
1492.7988	0.022104
1494.6625	0.021855
1496.5261	0.022954
1498.3898	0.023792
1500.2535	0.023524
1502.1171	0.022784
1503.9808	0.022449
1505.8445	0.024606
1507.7082	0.027832
1509.5718	0.027082
1511.4355	0.026379
1513.2992	0.026398
1515.1628	0.026683
1517.0265	0.027468
1518.8902	0.027908
1520.7538	0.028888
1522.6175	0.030138
1524.4812	0.029912
1526.3448	0.030321
1528.2085	0.030535
1530.0722	0.030315
1531.9359	0.030829
1533.7995	0.031861
1535.6632	0.031405
1537.5269	0.030876
1539.3905	0.033201
1541.2542	0.035798
1543.1179	0.035667
1544.9815	0.035390
1546.8452	0.034837
1548.7089	0.034480
1550.5725	0.034695
1552.4362	0.034252
1554.2999	0.033658
1556.1635	0.033639
1558.0272	0.035767
1559.8909	0.038483
1561.7546	0.036233
1563.6182	0.034658
1565.4819	0.034259
1567.3456	0.034190
1569.2092	0.034773
1571.0729	0.034880
1572.9366	0.034022
1574.8002	0.034444
1576.6639	0.036215
1578.5276	0.036204
1580.3912	0.035710
1582.2549	0.036013
1584.1186	0.036530
1585.9822	0.037194
1587.8459	0.037849
1589.7096	0.038566
1591.5733	0.039328
1593.4369	0.040306
1595.3006	0.041501
1597.1643	0.042582
1599.0279	0.043539
1600.8916	0.044779
1602.7553	0.046171
1604.6189	0.047610
1606.4826	0.049179
1608.3463	0.051038
1610.2099	0.052636
1612.0736	0.053886
1613.9373	0.055281
1615.8010	0.057887
1617.6646	0.060686
1619.5283	0.061333
1621.3920	0.062335
1623.2556	0.064620
1625.1193	0.066014
1626.9830	0.066948
1628.8466	0.067928
1630.7103	0.067913
1632.5740	0.067701
1634.4376	0.068894
1636.3013	0.070577
1638.1650	0.069827
1640.0286	0.068554
1641.8923	0.067394
1643.7560	0.066333
1645.6197	0.066253
1647.4833	0.065826
1649.3470	0.063821
1651.2107	0.062765
1653.0743	0.064116
1654.9380	0.062509
1656.8017	0.059567
1658.6653	0.057305
1660.5290	0.055730
1662.3927	0.054503
1664.2563	0.052592
1666.1200	0.050480
1667.9837	0.049119
1669.8474	0.047784
1671.7110	0.045694
1673.5747	0.043725
1675.4384	0.042159
1677.3020	0.040127
1679.1657	0.037820
1681.0294	0.035945
1682.8930	0.034906
1684.7567	0.034203
1686.6204	0.032064
1688.4840	0.029939
1690.3477	0.028005
1692.2114	0.025976
1694.0750	0.024390
1695.9387	0.023470
1697.8024	0.022602
1699.6661	0.021826
1701.5297	0.021098
1703.3934	0.019381
1705.2571	0.018447
1707.1207	0.017611
1708.9844	0.016314
1710.8481	0.015214
1712.7117	0.014364
1714.5754	0.014083
1716.4391	0.014493
1718.3027	0.014603
1720.1664	0.013734
1722.0301	0.012658
1723.8937	0.012161
1725.7574	0.011582
1727.6211	0.010963
1729.4848	0.010653
1731.3484	0.010553
1733.2121	0.010635
1735.0758	0.011242
1736.9394	0.010473
1738.8031	0.009868
1740.6668	0.009965
1742.5304	0.009650
1744.3941	0.009249
1746.2578	0.009030
1748.1214	0.009108
1749.9851	0.009347
1751.8488	0.009269
1753.7125	0.008798
1755.5761	0.008325
1757.4398	0.008351
1759.3035	0.008144
1761.1671	0.008084
1763.0308	0.008159
1764.8945	0.007730
1766.7581	0.007335
1768.6218	0.007505
1770.4855	0.007697
1772.3491	0.008193
1774.2128	0.008147
1776.0765	0.007504
1777.9401	0.007195
1779.8038	0.007199
1781.6675	0.007328
1783.5312	0.007119
1785.3948	0.007070
1787.2585	0.006761
1789.1222	0.006544
1790.9858	0.006945
1792.8495	0.007488
1794.7132	0.007164
1796.5768	0.006658
1798.4405	0.006495
1800.3042	0.006668
1802.1678	0.006876
1804.0315	0.006607
1805.8952	0.006228
1807.7589	0.006113
1809.6225	0.006235
1811.4862	0.006235
1813.3499	0.006047
1815.2135	0.005788
1817.0772	0.005682
1818.9409	0.005849
1820.8045	0.005829
1822.6682	0.005832
1824.5319	0.006113
1826.3955	0.006187
1828.2592	0.005924
1830.1229	0.006279
1831.9865	0.006341
1833.8502	0.005831
1835.7139	0.005684
1837.5776	0.005577
1839.4412	0.005520
1841.3049	0.005506
1843.1686	0.005817
1845.0322	0.006365
1846.8959	0.006323
1848.7596	0.006016
1850.6232	0.005766
1852.4869	0.005604
1854.3506	0.005698
1856.2142	0.005680
1858.0779	0.005791
1859.9416	0.005835
1861.8052	0.005736
1863.6689	0.005594
1865.5326	0.005604
1867.3963	0.005848
1869.2599	0.006480
1871.1236	0.006379
1872.9873	0.005797
1874.8509	0.005433
1876.7146	0.005325
1878.5783	0.005475
1880.4419	0.005646
1882.3056	0.005592
1884.1693	0.005666
1886.0329	0.005717
1887.8966	0.005703
1889.7603	0.005798
1891.6240	0.005647
1893.4876	0.005470
1895.3513	0.005685
1897.2150	0.005785
1899.0786	0.005842
1900.9423	0.005752
1902.8060	0.005540
1904.6696	0.005434
1906.5333	0.005608
1908.3970	0.005781
1910.2606	0.005770
1912.1243	0.005519
1913.9880	0.005492
1915.8516	0.005636
1917.7153	0.005545
1919.5790	0.005672
1921.4427	0.005808
1923.3063	0.006055
1925.1700	0.005961
1927.0337	0.005616
1928.8973	0.005588
1930.7610	0.005591
1932.6247	0.005596
1934.4883	0.005623
1936.3520	0.005383
1938.2157	0.005335
1940.0793	0.005307
1941.9430	0.005281
1943.8067	0.005621
1945.6704	0.005578
1947.5340	0.005434
1949.3977	0.005483
1951.2614	0.005522
1953.1250	0.005119
1954.9887	0.004838
1956.8524	0.005083
1958.7160	0.005474
1960.5797	0.005763
1962.4434	0.005914
1964.3070	0.005557
1966.1707	0.005425
1968.0344	0.005391
1969.8980	0.005585
1971.7617	0.005899
1973.6254	0.006115
1975.4891	0.006107
1977.3527	0.007051
1979.2164	0.008063
1981.0801	0.008345
1982.9437	0.007877
1984.8074	0.007410
1986.6711	0.006875
1988.5347	0.006709
1990.3984	0.007073
1992.2621	0.007769
1994.1257	0.007821
1995.9894	0.007312
1997.8531	0.006895
1999.7167	0.006281
2001.5804	0.005779
2003.4441	0.005734
2005.3078	0.005808
2007.1714	0.006365
2009.0351	0.006951
2010.8988	0.007318
2012.7624	0.007650
2014.6261	0.007661
2016.4898	0.007261
2018.3534	0.007043
2020.2171	0.006653
2022.0808	0.006474
2023.9444	0.006819
2025.8081	0.007533
2027.6718	0.007791
2029.5355	0.007905
2031.3991	0.008010
2033.2628	0.008325
2035.1265	0.008411
2036.9901	0.008173
2038.8538	0.008430
2040.7175	0.008952
2042.5811	0.009335
2044.4448	0.009169
2046.3085	0.009055
2048.1721	0.009384
2050.0358	0.010243
2051.8995	0.010041
2053.7631	0.009279
2055.6268	0.009055
2057.4905	0.009318
2059.3542	0.009628
2061.2178	0.009431
2063.0815	0.009443
2064.9452	0.009561
2066.8088	0.009601
2068.6725	0.009687
2070.5362	0.009875
2072.3998	0.010061
2074.2635	0.010068
2076.1272	0.009878
2077.9908	0.009835
2079.8545	0.009808
2081.7182	0.009728
2083.5819	0.009688
2085.4455	0.009433
2087.3092	0.009084
2089.1729	0.009128
2091.0365	0.008997
2092.9002	0.008523
2094.7639	0.008493
2096.6275	0.008971
2098.4912	0.009175
2100.3549	0.009232
2102.2185	0.009071
2104.0822	0.008961
2105.9459	0.008975
2107.8095	0.009122
2109.6732	0.009163
2111.5369	0.009161
2113.4006	0.009176
2115.2642	0.008881
2117.1279	0.008399
2118.9916	0.008153
2120.8552	0.008063
2122.7189	0.007808
2124.5826	0.007338
2126.4462	0.007146
2128.3099	0.007057
2130.1736	0.006617
2132.0372	0.006146
2133.9009	0.006146
2135.7646	0.006436
2137.6282	0.006831
2139.4919	0.007273
2141.3556	0.007152
2143.2193	0.006312
2145.0829	0.006232
2146.9466	0.006842
2148.8103	0.006351
2150.6739	0.005495
2152.5376	0.005360
2154.4013	0.005256
2156.2649	0.005266
2158.1286	0.006549
2159.9923	0.008946
2161.8559	0.009910
2163.7196	0.009579
2165.5833	0.009407
2167.4470	0.008985
2169.3106	0.008650
2171.1743	0.008632
2173.0380	0.007893
2174.9016	0.007611
2176.7653	0.007942
2178.6290	0.007516
2180.4926	0.007195
2182.3563	0.007785
2184.2200	0.008517
2186.0836	0.008700
2187.9473	0.008621
2189.8110	0.008788
2191.6746	0.008431
2193.5383	0.008206
2195.4020	0.008241
2197.2657	0.008074
2199.1293	0.008136
2200.9930	0.008141
2202.8567	0.008332
2204.7203	0.008295
2206.5840	0.007926
2208.4477	0.007821
2210.3113	0.007877
2212.1750	0.007904
2214.0387	0.007902
2215.9023	0.007979
2217.7660	0.007708
2219.6297	0.007762
2221.4934	0.007992
2223.3570	0.007815
2225.2207	0.007847
2227.0844	0.008031
2228.9480	0.008068
2230.8117	0.008142
2232.6754	0.008271
2234.5390	0.007965
2236.4027	0.007689
2238.2664	0.007670
2240.1300	0.007558
2241.9937	0.007671
2243.8574	0.007561
2245.7210	0.007422
2247.5847	0.007476
2249.4484	0.007582
2251.3121	0.007524
2253.1757	0.007163
2255.0394	0.007222
2256.9031	0.007684
2258.7667	0.007523
2260.6304	0.007469
2262.4941	0.007663
2264.3577	0.007412
2266.2214	0.007464
2268.0851	0.007780
2269.9487	0.007834
2271.8124	0.007734
2273.6761	0.007535
2275.5397	0.007524
2277.4034	0.007793
2279.2671	0.007958
2281.1308	0.007895
2282.9944	0.007854
2284.8581	0.007998
2286.7218	0.008099
2288.5854	0.008001
2290.4491	0.007807
2292.3128	0.007514
2294.1764	0.007361
2296.0401	0.007249
2297.9038	0.007205
2299.7674	0.007351
2301.6311	0.007247
2303.4948	0.006966
2305.3585	0.006910
2307.2221	0.007111
2309.0858	0.007256
2310.9495	0.007275
2312.8131	0.007373
2314.6768	0.007385
2316.5405	0.007335
2318.4041	0.007708
2320.2678	0.008249
2322.1315	0.008868
2323.9951	0.009022
2325.8588	0.008036
2327.7225	0.007172
2329.5861	0.007040
2331.4498	0.007097
2333.3135	0.007405
2335.1772	0.007403
2337.0408	0.006932
2338.9045	0.007436
2340.7682	0.008512
2342.6318	0.008743
2344.4955	0.008500
2346.3592	0.007758
2348.2228	0.006532
2350.0865	0.005567
2351.9502	0.004993
2353.8138	0.005040
2355.6775	0.006154
2357.5412	0.007338
2359.4049	0.007607
2361.2685	0.007816
2363.1322	0.008372
2364.9959	0.008783
2366.8595	0.008468
2368.7232	0.007976
2370.5869	0.007899
2372.4505	0.007728
2374.3142	0.007306
2376.1779	0.006770
2378.0415	0.006355
2379.9052	0.006047
2381.7689	0.005693
2383.6325	0.005306
2385.4962	0.004899
2387.3599	0.004555
2389.2236	0.004428
2391.0872	0.004404
2392.9509	0.004403
2394.8146	0.004353
2396.6782	0.004291
2398.5419	0.004310
2400.4056	0.004302
2402.2692	0.004248
2404.1329	0.004195
2405.9966	0.004237
2407.8602	0.004463
2409.7239	0.004535
2411.5876	0.004355
2413.4512	0.004326
2415.3149	0.004434
2417.1786	0.004465
2419.0423	0.004509
2420.9059	0.004514
2422.7696	0.004521
2424.6333	0.004488
2426.4969	0.004332
2428.3606	0.004440
2430.2243	0.004619
2432.0879	0.004558
2433.9516	0.004494
2435.8153	0.004469
2437.6789	0.004527
2439.5426	0.004491
2441.4063	0.004279
2443.2700	0.004287
2445.1336	0.004468
2446.9973	0.004568
2448.8610	0.004654
2450.7246	0.004724
2452.5883	0.004698
2454.4520	0.004620
2456.3156	0.004494
2458.1793	0.004434
2460.0430	0.004428
2461.9066	0.004365
2463.7703	0.004312
2465.6340	0.004385
2467.4976	0.004386
2469.3613	0.004252
2471.2250	0.004192
2473.0887	0.004283
2474.9523	0.004367
2476.8160	0.004342
2478.6797	0.004281
2480.5433	0.004151
2482.4070	0.004141
2484.2707	0.004234
2486.1343	0.004185
2487.9980	0.004171
2489.8617	0.004294
2491.7253	0.004302
2493.5890	0.004258
2495.4527	0.004300
2497.3164	0.004203
2499.1800	0.004144
2501.0437	0.004237
2502.9074	0.004237
2504.7710	0.004177
2506.6347	0.004167
2508.4984	0.004092
2510.3620	0.004172
2512.2257	0.004371
2514.0894	0.004396
2515.9530	0.004343
2517.8167	0.004315
2519.6804	0.004323
2521.5440	0.004354
2523.4077	0.004322
2525.2714	0.004242
2527.1351	0.004220
2528.9987	0.004285
2530.8624	0.004263
2532.7261	0.004175
2534.5897	0.004198
2536.4534	0.004250
2538.3171	0.004251
2540.1807	0.004300
2542.0444	0.004327
2543.9081	0.004358
2545.7717	0.004467
2547.6354	0.004408
2549.4991	0.004358
2551.3627	0.004472
2553.2264	0.004398
2555.0901	0.004355
2556.9538	0.004511
2558.8174	0.004564
2560.6811	0.004487
2562.5448	0.004296
2564.4084	0.004183
2566.2721	0.004225
2568.1358	0.004401
2569.9994	0.004508
2571.8631	0.004411
2573.7268	0.004364
2575.5904	0.004417
2577.4541	0.004581
2579.3178	0.004802
2581.1815	0.004762
2583.0451	0.004623
2584.9088	0.004511
2586.7725	0.004478
2588.6361	0.004604
2590.4998	0.004681
2592.3635	0.004684
2594.2271	0.004598
2596.0908	0.004609
2597.9545	0.004734
2599.8181	0.004737
2601.6818	0.004758
2603.5455	0.004802
2605.4091	0.004829
2607.2728	0.004838
2609.1365	0.004868
2611.0002	0.004948
2612.8638	0.004997
2614.7275	0.004939
2616.5912	0.004899
2618.4548	0.004973
2620.3185	0.004985
2622.1822	0.004910
2624.0458	0.004877
2625.9095	0.004868
2627.7732	0.004925
2629.6368	0.005012
2631.5005	0.005003
2633.3642	0.005014
2635.2279	0.005112
2637.0915	0.005131
2638.9552	0.005059
2640.8189	0.005105
2642.6825	0.005135
2644.5462	0.005016
2646.4099	0.004937
2648.2735	0.004978
2650.1372	0.005033
2652.0009	0.005025
2653.8645	0.005036
2655.7282	0.004990
2657.5919	0.004821
2659.4555	0.004741
2661.3192	0.004717
2663.1829	0.004620
2665.0466	0.004488
2666.9102	0.004365
2668.7739	0.004304
2670.6376	0.004333
2672.5012	0.004391
2674.3649	0.004401
2676.2286	0.004430
2678.0922	0.004444
2679.9559	0.004393
2681.8196	0.004384
2683.6832	0.004459
2685.5469	0.004501
2687.4106	0.004474
2689.2742	0.004497
2691.1379	0.004551
2693.0016	0.004566
2694.8653	0.004522
2696.7289	0.004512
2698.5926	0.004574
2700.4563	0.004602
2702.3199	0.004617
2704.1836	0.004629
2706.0473	0.004665
2707.9109	0.004759
2709.7746	0.004840
2711.6383	0.004802
2713.5019	0.004731
2715.3656	0.004763
2717.2293	0.004837
2719.0930	0.004883
2720.9566	0.004909
2722.8203	0.004948
2724.6840	0.004982
2726.5476	0.004991
2728.4113	0.005016
2730.2750	0.005014
2732.1386	0.005033
2734.0023	0.005153
2735.8660	0.005225
2737.7296	0.005214
2739.5933	0.005233
2741.4570	0.005260
2743.3206	0.005257
2745.1843	0.005274
2747.0480	0.005406
2748.9117	0.005458
2750.7753	0.005386
2752.6390	0.005426
2754.5027	0.005551
2756.3663	0.005625
2758.2300	0.005605
2760.0937	0.005560
2761.9573	0.005541
2763.8210	0.005619
2765.6847	0.005733
2767.5483	0.005756
2769.4120	0.005738
2771.2757	0.005780
2773.1394	0.005849
2775.0030	0.005941
2776.8667	0.006083
2778.7304	0.006159
2780.5940	0.006115
2782.4577	0.006104
2784.3214	0.006178
2786.1850	0.006254
2788.0487	0.006294
2789.9124	0.006276
2791.7760	0.006304
2793.6397	0.006366
2795.5034	0.006417
2797.3670	0.006503
2799.2307	0.006593
2801.0944	0.006694
2802.9581	0.006764
2804.8217	0.006839
2806.6854	0.006850
2808.5491	0.006834
2810.4127	0.006980
2812.2764	0.007148
2814.1401	0.007180
2816.0037	0.007189
2817.8674	0.007210
2819.7311	0.007286
2821.5947	0.007399
2823.4584	0.007447
2825.3221	0.007502
2827.1857	0.007561
2829.0494	0.007662
2830.9131	0.007772
2832.7768	0.007857
2834.6404	0.007917
2836.5041	0.007987
2838.3678	0.008103
2840.2314	0.008136
2842.0951	0.008213
2843.9588	0.008387
2845.8224	0.008524
2847.6861	0.008717
2849.5498	0.008877
2851.4134	0.008923
2853.2771	0.009004
2855.1408	0.009101
2857.0045	0.009163
2858.8681	0.009310
2860.7318	0.009483
2862.5955	0.009581
2864.4591	0.009663
2866.3228	0.009795
2868.1865	0.009962
2870.0501	0.010130
2871.9138	0.010296
2873.7775	0.010404
2875.6411	0.010447
2877.5048	0.010542
2879.3685	0.010641
2881.2321	0.010656
2883.0958	0.010694
2884.9595	0.010804
2886.8232	0.010909
2888.6868	0.011040
2890.5505	0.011130
2892.4142	0.011194
2894.2778	0.011351
2896.1415	0.011544
2898.0052	0.011628
2899.8688	0.011680
2901.7325	0.011788
2903.5962	0.011918
2905.4598	0.012164
2907.3235	0.012369
2909.1872	0.012488
2911.0509	0.012685
2912.9145	0.012833
2914.7782	0.012926
2916.6419	0.013116
2918.5055	0.013346
2920.3692	0.013533
2922.2329	0.013700
2924.0965	0.013858
2925.9602	0.014002
2927.8239	0.014198
2929.6875	0.014389
2931.5512	0.014540
2933.4149	0.014708
2935.2785	0.014827
2937.1422	0.014840
2939.0059	0.014850
2940.8696	0.014989
2942.7332	0.015036
2944.5969	0.014985
2946.4606	0.015050
2948.3242	0.015188
2950.1879	0.015363
2952.0516	0.015476
2953.9152	0.015556
2955.7789	0.015600
2957.6426	0.015698
2959.5062	0.015944
2961.3699	0.016073
2963.2336	0.016083
2965.0972	0.016136
2966.9609	0.016254
2968.8246	0.016375
2970.6883	0.016431
2972.5519	0.016392
2974.4156	0.016402
2976.2793	0.016402
2978.1429	0.016414
2980.0066	0.016526
2981.8703	0.016648
2983.7339	0.016667
2985.5976	0.016732
2987.4613	0.016915
2989.3249	0.017059
2991.1886	0.017083
2993.0523	0.017112
2994.9160	0.017249
2996.7796	0.017388
2998.6433	0.017614
3000.5070	0.017883
3002.3706	0.017959
3004.2343	0.018133
3006.0980	0.018460
3007.9616	0.018617
3009.8253	0.018746
3011.6890	0.019094
3013.5526	0.019396
3015.4163	0.019494
3017.2800	0.019702
3019.1436	0.020063
3021.0073	0.020298
3022.8710	0.020547
3024.7347	0.020874
3026.5983	0.021133
3028.4620	0.021377
3030.3257	0.021682
3032.1893	0.021960
3034.0530	0.022256
3035.9167	0.022576
3037.7803	0.022922
3039.6440	0.023133
3041.5077	0.023412
3043.3713	0.023757
3045.2350	0.024129
3047.0987	0.024510
3048.9624	0.024828
3050.8260	0.025170
3052.6897	0.025475
3054.5534	0.025733
3056.4170	0.026067
3058.2807	0.026526
3060.1444	0.026950
3062.0080	0.027235
3063.8717	0.027676
3065.7354	0.028163
3067.5990	0.028530
3069.4627	0.028771
3071.3264	0.029011
3073.1900	0.029354
3075.0537	0.029838
3076.9174	0.030230
3078.7811	0.030489
3080.6447	0.030678
3082.5084	0.031112
3084.3721	0.031635
3086.2357	0.032034
3088.0994	0.032388
3089.9631	0.032824
3091.8267	0.033231
3093.6904	0.033661
3095.5541	0.034215
3097.4177	0.034669
3099.2814	0.034924
3101.1451	0.035268
3103.0087	0.035754
3104.8724	0.036273
3106.7361	0.036714
3108.5998	0.037215
3110.4634	0.037627
3112.3271	0.038129
3114.1908	0.038566
3116.0544	0.039071
3117.9181	0.039615
3119.7818	0.040177
3121.6454	0.040681
3123.5091	0.041263
3125.3728	0.041798
3127.2364	0.042344
3129.1001	0.042961
3130.9638	0.043593
3132.8275	0.044193
3134.6911	0.044782
3136.5548	0.045230
3138.4185	0.045893
3140.2821	0.046634
3142.1458	0.047254
3144.0095	0.047728
3145.8731	0.048322
3147.7368	0.048933
3149.6005	0.049641
3151.4641	0.050424
3153.3278	0.051180
3155.1915	0.051828
3157.0551	0.052529
3158.9188	0.053155
3160.7825	0.053816
3162.6462	0.054480
3164.5098	0.055245
3166.3735	0.055883
3168.2372	0.056526
3170.1008	0.057217
3171.9645	0.058008
3173.8282	0.058598
3175.6918	0.059456
3177.5555	0.060334
3179.4192	0.061015
3181.2828	0.061523
3183.1465	0.062267
3185.0102	0.063059
3186.8739	0.063908
3188.7375	0.064610
3190.6012	0.065170
3192.4649	0.065640
3194.3285	0.066329
3196.1922	0.066938
3198.0559	0.067573
3199.9195	0.068301
3201.7832	0.069217
3203.6469	0.069742
3205.5105	0.070364
3207.3742	0.070940
3209.2379	0.071651
3211.1015	0.072335
3212.9652	0.072904
3214.8289	0.073355
3216.6926	0.074080
3218.5562	0.074486
3220.4199	0.075017
3222.2836	0.075617
3224.1472	0.076332
3226.0109	0.076822
3227.8746	0.077333
3229.7382	0.077800
3231.6019	0.078289
3233.4656	0.078809
3235.3292	0.079394
3237.1929	0.079624
3239.0566	0.080105
3240.9202	0.080713
3242.7839	0.081388
3244.6476	0.081653
3246.5113	0.082009
3248.3749	0.082335
3250.2386	0.082780
3252.1023	0.083215
3253.9659	0.083637
3255.8296	0.083950
3257.6933	0.084444
3259.5569	0.084778
3261.4206	0.085236
3263.2843	0.085513
3265.1479	0.085998
3267.0116	0.086278
3268.8753	0.086453
3270.7390	0.086754
3272.6026	0.087424
3274.4663	0.087634
3276.3300	0.087765
3278.1936	0.087957
3280.0573	0.088331
3281.9210	0.088541
3283.7846	0.089009
3285.6483	0.089289
3287.5120	0.089685
3289.3756	0.089939
3291.2393	0.090221
3293.1030	0.090432
3294.9666	0.090860
3296.8303	0.091012
3298.6940	0.091320
3300.5577	0.091592
3302.4213	0.092009
3304.2850	0.092158
3306.1487	0.092353
3308.0123	0.092399
3309.8760	0.092822
3311.7397	0.093210
3313.6033	0.093650
3315.4670	0.093852
3317.3307	0.094189
3319.1943	0.094334
3321.0580	0.094983
3322.9217	0.095142
3324.7854	0.095292
3326.6490	0.095612
3328.5127	0.096218
3330.3764	0.096453
3332.2400	0.096569
3334.1037	0.096411
3335.9674	0.096717
3337.8310	0.096905
3339.6947	0.097370
3341.5584	0.097782
3343.4220	0.098131
3345.2857	0.098280
3347.1494	0.098599
3349.0130	0.098632
3350.8767	0.098994
3352.7404	0.099258
3354.6041	0.099706
3356.4677	0.099709
3358.3314	0.099851
3360.1951	0.099676
3362.0587	0.099896
3363.9224	0.099876
3365.7861	0.099923
3367.6497	0.099790
3369.5134	0.100181
3371.3771	0.100343
3373.2407	0.100395
3375.1044	0.100011
3376.9681	0.100030
3378.8317	0.099955
3380.6954	0.100185
3382.5591	0.100207
3384.4228	0.100424
3386.2864	0.100011
3388.1501	0.099760
3390.0138	0.099406
3391.8774	0.099095
3393.7411	0.098662
3395.6048	0.098784
3397.4684	0.098447
3399.3321	0.098271
3401.1958	0.098310
3403.0594	0.098746
3404.9231	0.098567
3406.7868	0.098202
3408.6505	0.097272
3410.5141	0.096821
3412.3778	0.096704
3414.2415	0.096601
3416.1051	0.095992
3417.9688	0.095764
3419.8325	0.095211
3421.6961	0.094947
3423.5598	0.094376
3425.4235	0.094064
3427.2871	0.093489
3429.1508	0.093147
3431.0145	0.092495
3432.8781	0.092230
3434.7418	0.091499
3436.6055	0.091281
3438.4692	0.091056
3440.3328	0.090630
3442.1965	0.089876
3444.0602	0.089221
3445.9238	0.088373
3447.7875	0.088169
3449.6512	0.087715
3451.5148	0.087217
3453.3785	0.086473
3455.2422	0.086149
3457.1058	0.085307
3458.9695	0.084608
3460.8332	0.083910
3462.6969	0.083243
3464.5605	0.082390
3466.4242	0.082004
3468.2879	0.081139
3470.1515	0.080775
3472.0152	0.080284
3473.8789	0.079935
3475.7425	0.078904
3477.6062	0.078090
3479.4699	0.077435
3481.3335	0.076963
3483.1972	0.076252
3485.0609	0.075757
3486.9245	0.074667
3488.7882	0.074047
3490.6519	0.073327
3492.5156	0.072796
3494.3792	0.071882
3496.2429	0.071126
3498.1066	0.070373
3499.9702	0.069933
3501.8339	0.069077
3503.6976	0.068483
3505.5612	0.067969
3507.4249	0.067355
3509.2886	0.066483
3511.1522	0.065810
3513.0159	0.064797
3514.8796	0.064371
3516.7432	0.063524
3518.6069	0.062727
3520.4706	0.062165
3522.3343	0.061653
3524.1979	0.060532
3526.0616	0.059867
3527.9253	0.058945
3529.7889	0.058159
3531.6526	0.057652
3533.5163	0.057195
3535.3799	0.056014
3537.2436	0.055176
3539.1073	0.054663
3540.9709	0.053873
3542.8346	0.052966
3544.6983	0.052629
3546.5620	0.052104
3548.4256	0.051501
3550.2893	0.050628
3552.1530	0.050003
3554.0166	0.049084
3555.8803	0.048273
3557.7440	0.047624
3559.6076	0.047029
3561.4713	0.045878
3563.3350	0.044955
3565.1986	0.044411
3567.0623	0.044254
3568.9260	0.044062
3570.7896	0.043448
3572.6533	0.042391
3574.5170	0.041745
3576.3807	0.041057
3578.2443	0.040320
3580.1080	0.039421
3581.9717	0.038895
3583.8353	0.038135
3585.6990	0.037384
3587.5627	0.036909
3589.4263	0.036713
3591.2900	0.035858
3593.1537	0.034935
3595.0173	0.034202
3596.8810	0.033897
3598.7447	0.033201
3600.6084	0.032600
3602.4720	0.031950
3604.3357	0.031159
3606.1994	0.030214
3608.0630	0.029792
3609.9267	0.029314
3611.7904	0.028655
3613.6540	0.027945
3615.5177	0.027417
3617.3814	0.026590
3619.2450	0.026097
3621.1087	0.025673
3622.9724	0.024930
3624.8360	0.023826
3626.6997	0.022782
3628.5634	0.022236
3630.4271	0.022698
3632.2907	0.022253
3634.1544	0.021043
3636.0181	0.020163
3637.8817	0.019448
3639.7454	0.018522
3641.6091	0.017573
3643.4727	0.016669
3645.3364	0.015737
3647.2001	0.014967
3649.0637	0.014981
3650.9274	0.015131
3652.7911	0.014678
3654.6547	0.013783
3656.5184	0.012910
3658.3821	0.012480
3660.2458	0.011749
3662.1094	0.010778
3663.9731	0.010006
3665.8368	0.009340
3667.7004	0.008525
3669.5641	0.007781
3671.4278	0.008007
3673.2914	0.008103
3675.1551	0.007389
3677.0188	0.007647
3678.8824	0.007531
3680.7461	0.006685
3682.6098	0.006055
3684.4735	0.005352
3686.3371	0.004781
3688.2008	0.004495
3690.0645	0.005024
3691.9281	0.005352
3693.7918	0.005220
3695.6555	0.004606
3697.5191	0.004033
3699.3828	0.003733
3701.2465	0.003438
3703.1101	0.003534
3704.9738	0.003423
3706.8375	0.002798
3708.7011	0.002552
3710.5648	0.003147
3712.4285	0.003913
3714.2922	0.003861
3716.1558	0.003109
3718.0195	0.002344
3719.8832	0.002263
3721.7468	0.002460
3723.6105	0.002553
3725.4742	0.002494
3727.3378	0.002428
3729.2015	0.002340
3731.0652	0.001928
3732.9288	0.001744
3734.7925	0.002211
3736.6562	0.002851
3738.5199	0.002882
3740.3835	0.002336
3742.2472	0.001651
3744.1109	0.001132
3745.9745	0.001977
3747.8382	0.002306
3749.7019	0.002033
3751.5655	0.002643
3753.4292	0.002878
3755.2929	0.002599
3757.1565	0.002035
3759.0202	0.001955
3760.8839	0.001984
3762.7475	0.001824
3764.6112	0.001313
3766.4749	0.001425
3768.3386	0.001780
3770.2022	0.001852
3772.0659	0.002039
3773.9296	0.001809
3775.7932	0.001422
3777.6569	0.001125
3779.5206	0.001178
3781.3842	0.001645
3783.2479	0.001617
3785.1116	0.001671
3786.9752	0.001794
3788.8389	0.001381
3790.7026	0.001111
3792.5662	0.001014
3794.4299	0.000868
3796.2936	0.000764
3798.1573	0.000946
3800.0209	0.000987
3801.8846	0.001221
3803.7483	0.002111
3805.6119	0.001699
3807.4756	0.001228
3809.3393	0.001584
3811.2029	0.001277
3813.0666	0.000740
3814.9303	0.000387
3816.7939	0.000694
3818.6576	0.001335
3820.5213	0.001089
3822.3850	0.001778
3824.2486	0.002034
3826.1123	0.001077
3827.9760	0.000731
3829.8396	0.000771
3831.7033	0.000714
3833.5670	0.000731
3835.4306	0.000683
3837.2943	0.000745
3839.1580	0.001191
3841.0216	0.001743
3842.8853	0.001488
3844.7490	0.001099
3846.6126	0.000845
3848.4763	0.000446
3850.3400	-0.000068
3852.2037	-0.000092
3854.0673	0.001096
3855.9310	0.002550
3857.7947	0.002170
3859.6583	0.001181
3861.5220	0.000475
3863.3857	0.000351
3865.2493	0.000706
3867.1130	0.000950
3868.9767	0.000639
3870.8403	0.000924
3872.7040	0.001474
3874.5677	0.001180
3876.4314	0.001132
3878.2950	0.000858
3880.1587	0.000455
3882.0224	0.000856
3883.8860	0.000983
3885.7497	0.000806
3887.6134	0.001240
3889.4770	0.001039
3891.3407	0.000628
3893.2044	0.000861
3895.0680	0.000816
3896.9317	0.000421
3898.7954	0.000255
3900.6590	0.000637
3902.5227	0.001301
3904.3864	0.001760
3906.2501	0.001785
3908.1137	0.001400
3909.9774	0.001028
3911.8411	0.000844
3913.7047	0.000753
3915.5684	0.000479
3917.4321	0.000384
3919.2957	0.000812
3921.1594	0.001063
3923.0231	0.000994
3924.8867	0.000680
3926.7504	0.000677
3928.6141	0.000801
3930.4777	0.000806
3932.3414	0.000887
3934.2051	0.001102
3936.0688	0.000983
3937.9324	0.000719
3939.7961	0.000737
3941.6598	0.000756
3943.5234	0.000847
3945.3871	0.000956
3947.2508	0.000786
3949.1144	0.000759
3950.9781	0.000901
3952.8418	0.000872
3954.7054	0.000765
3956.5691	0.000829
3958.4328	0.000860
3960.2965	0.000784
3962.1601	0.000787
3964.0238	0.000746
3965.8875	0.000598
3967.7511	0.000672
3969.6148	0.000699
3971.4785	0.000640
3973.3421	0.000764
3975.2058	0.000809
3977.0695	0.000750
3978.9331	0.000770
3980.7968	0.000692
3982.6605	0.000672
3984.5241	0.000685
3986.3878	0.000514
3988.2515	0.000550
3990.1152	0.000608
3991.9788	0.000750
3993.8425	0.000746
3995.7062	0.000606
3997.5698	0.000631
3999.4335	0.000679
