#Wavenumber	Intensity
650.4205	0.325920
652.2841	0.322996
654.1478	0.319710
656.0115	0.317928
657.8751	0.319218
659.7388	0.318266
661.6025	0.316210
663.4661	0.312481
665.3298	0.307496
667.1935	0.305958
669.0571	0.311616
670.9208	0.306120
672.7845	0.301480
674.6481	0.298853
676.5118	0.297491
678.3755	0.294871
680.2392	0.292447
682.1028	0.289468
683.9665	0.287203
685.8302	0.285552
687.6938	0.284881
689.5575	0.283923
691.4212	0.283087
693.2848	0.282462
695.1485	0.282043
697.0122	0.280864
698.8758	0.279161
700.7395	0.275909
702.6032	0.271429
704.4669	0.266588
706.3305	0.262300
708.1942	0.257351
710.0579	0.252649
711.9215	0.248954
713.7852	0.245799
715.6489	0.242449
717.5125	0.239315
719.3762	0.236724
721.2399	0.234620
723.1035	0.231772
724.9672	0.229303
726.8309	0.227682
728.6945	0.226070
730.5582	0.224036
732.4219	0.222259
734.2856	0.220928
736.1492	0.219955
738.0129	0.219405
739.8766	0.218636
741.7402	0.217211
743.6039	0.216006
745.4676	0.214289
747.3312	0.211485
749.1949	0.208455
751.0586	0.205977
752.9222	0.203579
754.7859	0.200871
756.6496	0.198378
758.5132	0.196437
760.3769	0.194999
762.2406	0.193635
764.1043	0.192259
765.9679	0.191110
767.8316	0.189955
769.6953	0.188554
771.5589	0.187157
773.4226	0.186170
775.2863	0.184852
777.1499	0.183300
779.0136	0.182416
780.8773	0.181567
782.7409	0.180423
784.6046	0.179356
786.4683	0.178412
788.3320	0.177764
790.1956	0.177217
792.0593	0.176245
793.9230	0.175044
795.7866	0.173724
797.6503	0.172224
799.5140	0.170721
801.3776	0.169032
803.2413	0.166950
805.1050	0.164701
806.9686	0.162385
808.8323	0.160210
810.6960	0.158132
812.5596	0.156094
814.4233	0.154236
816.2870	0.152446
818.1507	0.150530
820.0143	0.148635
821.8780	0.146696
823.7417	0.144609
825.6053	0.142444
827.4690	0.140490
829.3327	0.138808
831.1963	0.137230
833.0600	0.135577
834.9237	0.133935
836.7873	0.132285
838.6510	0.130683
840.5147	0.129007
842.3784	0.127199
844.2420	0.125580
846.1057	0.124311
847.9694	0.123086
849.8330	0.121885
851.6967	0.120703
853.5604	0.119548
855.4240	0.118400
857.2877	0.117328
859.1514	0.116620
861.0150	0.116229
862.8787	0.115710
864.7424	0.115109
866.6060	0.114723
868.4697	0.114604
870.3334	0.114695
872.1971	0.114687
874.0607	0.114154
875.9244	0.113322
877.7881	0.112295
879.6517	0.111070
881.5154	0.109910
883.3791	0.108931
885.2427	0.108035
887.1064	0.107382
888.9701	0.106985
890.8337	0.106927
892.6974	0.107003
894.5611	0.107074
896.4247	0.107124
898.2884	0.107000
900.1521	0.106495
902.0158	0.105772
903.8794	0.105153
905.7431	0.104605
907.6068	0.103980
909.4704	0.103481
911.3341	0.103356
913.1978	0.103533
915.0614	0.103815
916.9251	0.104307
918.7888	0.104868
920.6524	0.105354
922.5161	0.105719
924.3798	0.105957
926.2435	0.106104
928.1071	0.106267
929.9708	0.106494
931.8345	0.106766
933.6981	0.106843
935.5618	0.106779
937.4255	0.106658
939.2891	0.106474
941.1528	0.106320
943.0165	0.106255
944.8801	0.106256
946.7438	0.106261
948.6075	0.106338
950.4711	0.106550
952.3348	0.106732
954.1985	0.107019
956.0622	0.107536
957.9258	0.108297
959.7895	0.109295
961.6532	0.110538
963.5168	0.111946
965.3805	0.113529
967.2442	0.115208
969.1078	0.116961
970.9715	0.118883
972.8352	0.121064
974.6988	0.123604
976.5625	0.126842
978.4262	0.130752
980.2899	0.135200
982.1535	0.140070
984.0172	0.145112
985.8809	0.149970
987.7445	0.154459
989.6082	0.158362
991.4719	0.161654
993.3355	0.164629
995.1992	0.167740
997.0629	0.171313
998.9265	0.175731
1000.7902	0.181181
1002.6539	0.187437
1004.5175	0.194177
1006.3812	0.201275
1008.2449	0.208334
1010.1086	0.214915
1011.9722	0.220728
1013.8359	0.225829
1015.6996	0.230490
1017.5632	0.234992
1019.4269	0.239387
1021.2906	0.243571
1023.1542	0.247590
1025.0179	0.251575
1026.8816	0.255200
1028.7452	0.257752
1030.6089	0.258746
1032.4726	0.258385
1034.3362	0.256951
1036.1999	0.255044
1038.0636	0.252871
1039.9273	0.250495
1041.7909	0.248220
1043.6546	0.246298
1045.5183	0.244670
1047.3819	0.243285
1049.2456	0.242334
1051.1093	0.241775
1052.9729	0.241222
1054.8366	0.240595
1056.7003	0.239900
1058.5639	0.239170
1060.4276	0.238571
1062.2913	0.238424
1064.1550	0.238864
1066.0186	0.239949
1067.8823	0.241282
1069.7460	0.242551
1071.6096	0.243644
1073.4733	0.244269
1075.3370	0.243906
1077.2006	0.242275
1079.0643	0.239195
1080.9280	0.234480
1082.7916	0.228528
1084.6553	0.222112
1086.5190	0.215894
1088.3826	0.210570
1090.2463	0.206429
1092.1100	0.203500
1093.9737	0.201619
1095.8373	0.200522
1097.7010	0.199840
1099.5647	0.199264
1101.4283	0.198464
1103.2920	0.197132
1105.1557	0.195272
1107.0193	0.192978
1108.8830	0.190302
1110.7467	0.187576
1112.6103	0.184859
1114.4740	0.182055
1116.3377	0.179126
1118.2014	0.176165
1120.0650	0.173235
1121.9287	0.170397
1123.7924	0.167693
1125.6560	0.165063
1127.5197	0.162213
1129.3834	0.159050
1131.2470	0.155746
1133.1107	0.152520
1134.9744	0.149627
1136.8380	0.147310
1138.7017	0.145649
1140.5654	0.144673
1142.4290	0.144359
1144.2927	0.144593
1146.1564	0.145174
1148.0201	0.145862
1149.8837	0.146380
1151.7474	0.146606
1153.6111	0.146499
1155.4747	0.146105
1157.3384	0.145474
1159.2021	0.144678
1161.0657	0.143718
1162.9294	0.142638
1164.7931	0.141581
1166.6567	0.140603
1168.5204	0.139626
1170.3841	0.138423
1172.2477	0.136626
1174.1114	0.134182
1175.9751	0.131414
1177.8388	0.129022
1179.7024	0.127499
1181.5661	0.126950
1183.4298	0.127188
1185.2934	0.128089
1187.1571	0.129474
1189.0208	0.130983
1190.8844	0.132516
1192.7481	0.134157
1194.6118	0.135868
1196.4754	0.137708
1198.3391	0.139648
1200.2028	0.141650
1202.0665	0.143748
1203.9301	0.145873
1205.7938	0.147870
1207.6575	0.149872
1209.5211	0.152030
1211.3848	0.154520
1213.2485	0.157458
1215.1121	0.160908
1216.9758	0.164853
1218.8395	0.169052
1220.7031	0.173306
1222.5668	0.177585
1224.4305	0.181825
1226.2941	0.185792
1228.1578	0.189363
1230.0215	0.192513
1231.8852	0.195182
1233.7488	0.197271
1235.6125	0.198768
1237.4762	0.199787
1239.3398	0.200302
1241.2035	0.200412
1243.0672	0.200226
1244.9308	0.199683
1246.7945	0.198908
1248.6582	0.198190
1250.5218	0.197824
1252.3855	0.198053
1254.2492	0.198931
1256.1129	0.200033
1257.9765	0.200784
1259.8402	0.200879
1261.7039	0.199795
1263.5675	0.197371
1265.4312	0.194305
1267.2949	0.191300
1269.1585	0.189048
1271.0222	0.187757
1272.8859	0.187023
1274.7495	0.186608
1276.6132	0.186627
1278.4769	0.186929
1280.3405	0.187328
1282.2042	0.187649
1284.0679	0.187938
1285.9316	0.188377
1287.7952	0.189026
1289.6589	0.189521
1291.5226	0.189890
1293.3862	0.190298
1295.2499	0.190916
1297.1136	0.191838
1298.9772	0.192775
1300.8409	0.193683
1302.7046	0.194579
1304.5682	0.195422
1306.4319	0.196258
1308.2956	0.196991
1310.1592	0.197347
1312.0229	0.197638
1313.8866	0.197377
1315.7503	0.196113
1317.6139	0.194890
1319.4776	0.193480
1321.3413	0.191182
1323.2049	0.188739
1325.0686	0.186758
1326.9323	0.185229
1328.7959	0.184335
1330.6596	0.183891
1332.5233	0.183656
1334.3869	0.183515
1336.2506	0.184227
1338.1143	0.186727
1339.9780	0.189680
1341.8416	0.189826
1343.7053	0.189230
1345.5690	0.189616
1347.4326	0.190205
1349.2963	0.191033
1351.1600	0.191773
1353.0236	0.192697
1354.8873	0.194118
1356.7510	0.194966
1358.6146	0.195520
1360.4783	0.198298
1362.3420	0.204450
1364.2056	0.208560
1366.0693	0.210208
1367.9330	0.213657
1369.7967	0.215963
1371.6603	0.217560
1373.5240	0.223630
1375.3877	0.229799
1377.2513	0.232996
1379.1150	0.238037
1380.9787	0.243259
1382.8423	0.247481
1384.7060	0.251820
1386.5697	0.259340
1388.4333	0.264978
1390.2970	0.264104
1392.1607	0.264400
1394.0244	0.269004
1395.8880	0.272342
1397.7517	0.272221
1399.6154	0.271949
1401.4790	0.266834
1403.3427	0.262662
1405.2064	0.260127
1407.0700	0.254600
1408.9337	0.249000
1410.7974	0.244968
1412.6610	0.240364
1414.5247	0.235044
1416.3884	0.232180
1418.2520	0.235342
1420.1157	0.235818
1421.9794	0.230157
1423.8431	0.228643
1425.7067	0.226911
1427.5704	0.225693
1429.4341	0.228987
1431.2977	0.231146
1433.1614	0.230787
1435.0251	0.236242
1436.8887	0.248286
1438.7524	0.248476
1440.6161	0.245527
1442.4797	0.245631
1444.3434	0.245108
1446.2071	0.246350
1448.0707	0.248971
1449.9344	0.247188
1451.7981	0.242752
1453.6618	0.238407
1455.5254	0.239934
1457.3891	0.248154
1459.2528	0.239270
1461.1164	0.228378
1462.9801	0.224935
1464.8438	0.227800
1466.7074	0.224464
1468.5711	0.217324
1470.4348	0.214226
1472.2984	0.217844
1474.1621	0.217251
1476.0258	0.213977
1477.8895	0.211614
1479.7531	0.211439
1481.6168	0.215240
1483.4805	0.217597
1485.3441	0.221221
1487.2078	0.231223
1489.0715	0.248063
1490.9351	0.260977
1492.7988	0.261702
1494.6625	0.267685
1496.5261	0.286779
1498.3898	0.301189
1500.2535	0.305948
1502.1171	0.306025
1503.9808	0.309516
1505.8445	0.335428
1507.7082	0.371499
1509.5718	0.370439
1511.4355	0.372272
1513.2992	0.377137
1515.1628	0.382137
1517.0265	0.387573
1518.8902	0.387044
1520.7538	0.392833
1522.6175	0.401070
1524.4812	0.400103
1526.3448	0.405180
1528.2085	0.407021
1530.0722	0.405525
1531.9359	0.407002
1533.7995	0.412136
1535.6632	0.405619
1537.5269	0.399465
1539.3905	0.403926
1541.2542	0.405940
1543.1179	0.396162
1544.9815	0.385475
1546.8452	0.371965
1548.7089	0.359810
1550.5725	0.346664
1552.4362	0.332818
1554.2999	0.319078
1556.1635	0.306907
1558.0272	0.304584
1559.8909	0.299594
1561.7546	0.283322
1563.6182	0.272734
1565.4819	0.264408
1567.3456	0.257657
1569.2092	0.254295
1571.0729	0.247424
1572.9366	0.239199
1574.8002	0.237037
1576.6639	0.237861
1578.5276	0.232118
1580.3912	0.227275
1582.2549	0.225169
1584.1186	0.224014
1585.9822	0.223491
1587.8459	0.223863
1589.7096	0.225194
1591.5733	0.227473
1593.4369	0.230940
1595.3006	0.235622
1597.1643	0.240104
1599.0279	0.245336
1600.8916	0.252493
1602.7553	0.261257
1604.6189	0.270404
1606.4826	0.281073
1608.3463	0.294218
1610.2099	0.307232
1612.0736	0.317603
1613.9373	0.328009
1615.8010	0.347123
1617.6646	0.367917
1619.5283	0.373516
1621.3920	0.382276
1623.2556	0.400189
1625.1193	0.412656
1626.9830	0.420381
1628.8466	0.427887
1630.7103	0.429151
1632.5740	0.428076
1634.4376	0.430860
1636.3013	0.433069
1638.1650	0.425102
1640.0286	0.415367
1641.8923	0.406329
1643.7560	0.397674
1645.6197	0.392521
1647.4833	0.385367
1649.3470	0.373633
1651.2107	0.364011
1653.0743	0.356643
1654.9380	0.339852
1656.8017	0.323674
1658.6653	0.307305
1660.5290	0.291823
1662.3927	0.276386
1664.2563	0.260637
1666.1200	0.246591
1667.9837	0.234680
1669.8474	0.222130
1671.7110	0.209787
1673.5747	0.199283
1675.4384	0.188924
1677.3020	0.177368
1679.1657	0.167287
1681.0294	0.157136
1682.8930	0.148586
1684.7567	0.137675
1686.6204	0.126934
1688.4840	0.117789
1690.3477	0.107772
1692.2114	0.097719
1694.0750	0.088809
1695.9387	0.078242
1697.8024	0.069140
1699.6661	0.062308
1701.5297	0.054644
1703.3934	0.049553
1705.2571	0.045623
1707.1207	0.041619
1708.9844	0.038630
1710.8481	0.035881
1712.7117	0.033843
1714.5754	0.032291
1716.4391	0.031219
1718.3027	0.029978
1720.1664	0.028699
1722.0301	0.027702
1723.8937	0.027209
1725.7574	0.026416
1727.6211	0.025786
1729.4848	0.025165
1731.3484	0.024626
1733.2121	0.024209
1735.0758	0.023795
1736.9394	0.022765
1738.8031	0.022334
1740.6668	0.021871
1742.5304	0.021510
1744.3941	0.021064
1746.2578	0.020592
1748.1214	0.020124
1749.9851	0.019954
1751.8488	0.019396
1753.7125	0.018736
1755.5761	0.018220
1757.4398	0.017935
1759.3035	0.017471
1761.1671	0.017374
1763.0308	0.017137
1764.8945	0.016740
1766.7581	0.016516
1768.6218	0.016576
1770.4855	0.016410
1772.3491	0.016480
1774.2128	0.016071
1776.0765	0.015640
1777.9401	0.015320
1779.8038	0.015317
1781.6675	0.015237
1783.5312	0.015039
1785.3948	0.014916
1787.2585	0.014805
1789.1222	0.014543
1790.9858	0.014534
1792.8495	0.014524
1794.7132	0.014341
1796.5768	0.014119
1798.4405	0.014085
1800.3042	0.014002
1802.1678	0.013898
1804.0315	0.013577
1805.8952	0.013442
1807.7589	0.013373
1809.6225	0.013347
1811.4862	0.013201
1813.3499	0.012952
1815.2135	0.012615
1817.0772	0.012624
1818.9409	0.012743
1820.8045	0.012712
1822.6682	0.012482
1824.5319	0.012435
1826.3955	0.012404
1828.2592	0.012297
1830.1229	0.012351
1831.9865	0.012212
1833.8502	0.011929
1835.7139	0.011869
1837.5776	0.011820
1839.4412	0.011770
1841.3049	0.011697
1843.1686	0.011909
1845.0322	0.011996
1846.8959	0.011711
1848.7596	0.011489
1850.6232	0.011465
1852.4869	0.011312
1854.3506	0.011337
1856.2142	0.011430
1858.0779	0.011443
1859.9416	0.011380
1861.8052	0.011296
1863.6689	0.011209
1865.5326	0.011267
1867.3963	0.011296
1869.2599	0.011335
1871.1236	0.011161
1872.9873	0.011167
1874.8509	0.011329
1876.7146	0.011324
1878.5783	0.011366
1880.4419	0.011409
1882.3056	0.011329
1884.1693	0.011237
1886.0329	0.011136
1887.8966	0.011145
1889.7603	0.011196
1891.6240	0.011278
1893.4876	0.011335
1895.3513	0.011333
1897.2150	0.011111
1899.0786	0.011157
1900.9423	0.011088
1902.8060	0.010968
1904.6696	0.010952
1906.5333	0.010861
1908.3970	0.010855
1910.2606	0.011070
1912.1243	0.011057
1913.9880	0.010909
1915.8516	0.011009
1917.7153	0.011224
1919.5790	0.010970
1921.4427	0.010923
1923.3063	0.011033
1925.1700	0.011050
1927.0337	0.011053
1928.8973	0.010908
1930.7610	0.010702
1932.6247	0.010652
1934.4883	0.010630
1936.3520	0.010804
1938.2157	0.011038
1940.0793	0.011050
1941.9430	0.010762
1943.8067	0.010881
1945.6704	0.010913
1947.5340	0.010846
1949.3977	0.010810
1951.2614	0.010877
1953.1250	0.010797
1954.9887	0.010603
1956.8524	0.010357
1958.7160	0.010233
1960.5797	0.010283
1962.4434	0.010355
1964.3070	0.010452
1966.1707	0.010898
1968.0344	0.010813
1969.8980	0.010487
1971.7617	0.010614
1973.6254	0.010665
1975.4891	0.010772
1977.3527	0.011438
1979.2164	0.012000
1981.0801	0.012338
1982.9437	0.012327
1984.8074	0.012512
1986.6711	0.012606
1988.5347	0.012183
1990.3984	0.012069
1992.2621	0.012286
1994.1257	0.012298
1995.9894	0.012150
1997.8531	0.012083
1999.7167	0.012119
2001.5804	0.012074
2003.4441	0.012158
2005.3078	0.012009
2007.1714	0.011769
2009.0351	0.011652
2010.8988	0.011716
2012.7624	0.012176
2014.6261	0.013060
2016.4898	0.013422
2018.3534	0.013068
2020.2171	0.012646
2022.0808	0.012521
2023.9444	0.012875
2025.8081	0.013235
2027.6718	0.013140
2029.5355	0.013089
2031.3991	0.013084
2033.2628	0.013462
2035.1265	0.014065
2036.9901	0.014667
2038.8538	0.015101
2040.7175	0.015148
2042.5811	0.015310
2044.4448	0.015507
2046.3085	0.015946
2048.1721	0.016449
2050.0358	0.016824
2051.8995	0.016748
2053.7631	0.016286
2055.6268	0.016161
2057.4905	0.016378
2059.3542	0.016814
2061.2178	0.016845
2063.0815	0.016904
2064.9452	0.017254
2066.8088	0.017370
2068.6725	0.017582
2070.5362	0.018024
2072.3998	0.018165
2074.2635	0.018182
2076.1272	0.018323
2077.9908	0.018271
2079.8545	0.018056
2081.7182	0.018023
2083.5819	0.018211
2085.4455	0.018302
2087.3092	0.018129
2089.1729	0.017987
2091.0365	0.017932
2092.9002	0.017749
2094.7639	0.018006
2096.6275	0.018523
2098.4912	0.018496
2100.3549	0.018588
2102.2185	0.018686
2104.0822	0.018760
2105.9459	0.018892
2107.8095	0.018949
2109.6732	0.019122
2111.5369	0.019014
2113.4006	0.018891
2115.2642	0.018809
2117.1279	0.018645
2118.9916	0.018669
2120.8552	0.018634
2122.7189	0.018288
2124.5826	0.017824
2126.4462	0.017739
2128.3099	0.017627
2130.1736	0.016919
2132.0372	0.016280
2133.9009	0.016548
2135.7646	0.016988
2137.6282	0.017090
2139.4919	0.017075
2141.3556	0.017045
2143.2193	0.017159
2145.0829	0.017151
2146.9466	0.016867
2148.8103	0.016616
2150.6739	0.016249
2152.5376	0.015458
2154.4013	0.015419
2156.2649	0.015919
2158.1286	0.016917
2159.9923	0.019090
2161.8559	0.020467
2163.7196	0.020195
2165.5833	0.019433
2167.4470	0.018885
2169.3106	0.018760
2171.1743	0.018638
2173.0380	0.018379
2174.9016	0.018279
2176.7653	0.018425
2178.6290	0.018546
2180.4926	0.018616
2182.3563	0.018896
2184.2200	0.019282
2186.0836	0.019200
2187.9473	0.019180
2189.8110	0.019283
2191.6746	0.019205
2193.5383	0.019171
2195.4020	0.018910
2197.2657	0.018692
2199.1293	0.018898
2200.9930	0.019344
2202.8567	0.019376
2204.7203	0.019171
2206.5840	0.019381
2208.4477	0.019402
2210.3113	0.019138
2212.1750	0.018971
2214.0387	0.019259
2215.9023	0.019563
2217.7660	0.019215
2219.6297	0.018938
2221.4934	0.019157
2223.3570	0.019130
2225.2207	0.018834
2227.0844	0.018886
2228.9480	0.019255
2230.8117	0.019326
2232.6754	0.019337
2234.5390	0.019709
2236.4027	0.019631
2238.2664	0.019102
2240.1300	0.018837
2241.9937	0.018933
2243.8574	0.019281
2245.7210	0.019421
2247.5847	0.019212
2249.4484	0.018992
2251.3121	0.018965
2253.1757	0.018986
2255.0394	0.019138
2256.9031	0.019243
2258.7667	0.019190
2260.6304	0.019244
2262.4941	0.019319
2264.3577	0.019451
2266.2214	0.019568
2268.0851	0.019527
2269.9487	0.019510
2271.8124	0.019473
2273.6761	0.019537
2275.5397	0.019792
2277.4034	0.019806
2279.2671	0.019676
2281.1308	0.019801
2282.9944	0.019917
2284.8581	0.020021
2286.7218	0.020052
2288.5854	0.019890
2290.4491	0.019901
2292.3128	0.019991
2294.1764	0.019796
2296.0401	0.019562
2297.9038	0.019593
2299.7674	0.019651
2301.6311	0.019582
2303.4948	0.019480
2305.3585	0.019499
2307.2221	0.019713
2309.0858	0.019933
2310.9495	0.020127
2312.8131	0.020169
2314.6768	0.020113
2316.5405	0.020244
2318.4041	0.020657
2320.2678	0.021304
2322.1315	0.021833
2323.9951	0.021962
2325.8588	0.021501
2327.7225	0.020859
2329.5861	0.020931
2331.4498	0.021282
2333.3135	0.021155
2335.1772	0.021318
2337.0408	0.021917
2338.9045	0.022309
2340.7682	0.022927
2342.6318	0.023350
2344.4955	0.022819
2346.3592	0.021480
2348.2228	0.019649
2350.0865	0.018501
2351.9502	0.018874
2353.8138	0.020176
2355.6775	0.021367
2357.5412	0.022497
2359.4049	0.023385
2361.2685	0.024275
2363.1322	0.025085
2364.9959	0.025089
2366.8595	0.024735
2368.7232	0.024544
2370.5869	0.024232
2372.4505	0.023675
2374.3142	0.023025
2376.1779	0.022377
2378.0415	0.021704
2379.9052	0.021040
2381.7689	0.020391
2383.6325	0.019855
2385.4962	0.019487
2387.3599	0.019301
2389.2236	0.019222
2391.0872	0.019225
2392.9509	0.019267
2394.8146	0.019274
2396.6782	0.019283
2398.5419	0.019405
2400.4056	0.019508
2402.2692	0.019487
2404.1329	0.019542
2405.9966	0.019756
2407.8602	0.019983
2409.7239	0.019980
2411.5876	0.019933
2413.4512	0.020071
2415.3149	0.020140
2417.1786	0.020218
2419.0423	0.020354
2420.9059	0.020373
2422.7696	0.020392
2424.6333	0.020482
2426.4969	0.020559
2428.3606	0.020715
2430.2243	0.020848
2432.0879	0.020899
2433.9516	0.020971
2435.8153	0.021111
2437.6789	0.021229
2439.5426	0.021302
2441.4063	0.021379
2443.2700	0.021547
2445.1336	0.021680
2446.9973	0.021732
2448.8610	0.021872
2450.7246	0.022097
2452.5883	0.022186
2454.4520	0.022223
2456.3156	0.022356
2458.1793	0.022536
2460.0430	0.022711
2461.9066	0.022688
2463.7703	0.022531
2465.6340	0.022684
2467.4976	0.022839
2469.3613	0.022970
2471.2250	0.023170
2473.0887	0.023332
2474.9523	0.023411
2476.8160	0.023406
2478.6797	0.023496
2480.5433	0.023764
2482.4070	0.023965
2484.2707	0.023951
2486.1343	0.024051
2487.9980	0.024401
2489.8617	0.024527
2491.7253	0.024428
2493.5890	0.024485
2495.4527	0.024732
2497.3164	0.024914
2499.1800	0.024982
2501.0437	0.025102
2502.9074	0.025289
2504.7710	0.025316
2506.6347	0.025340
2508.4984	0.025558
2510.3620	0.025726
2512.2257	0.025742
2514.0894	0.025863
2515.9530	0.026080
2517.8167	0.026230
2519.6804	0.026254
2521.5440	0.026179
2523.4077	0.026287
2525.2714	0.026555
2527.1351	0.026600
2528.9987	0.026652
2530.8624	0.026746
2532.7261	0.026832
2534.5897	0.027055
2536.4534	0.027260
2538.3171	0.027358
2540.1807	0.027464
2542.0444	0.027578
2543.9081	0.027682
2545.7717	0.027889
2547.6354	0.028100
2549.4991	0.028112
2551.3627	0.028224
2553.2264	0.028452
2555.0901	0.028645
2556.9538	0.028691
2558.8174	0.028804
2560.6811	0.029018
2562.5448	0.029191
2564.4084	0.029271
2566.2721	0.029479
2568.1358	0.029660
2569.9994	0.029767
2571.8631	0.029976
2573.7268	0.030211
2575.5904	0.030377
2577.4541	0.030543
2579.3178	0.030707
2581.1815	0.030787
2583.0451	0.030910
2584.9088	0.031232
2586.7725	0.031358
2588.6361	0.031422
2590.4998	0.031768
2592.3635	0.032140
2594.2271	0.032312
2596.0908	0.032394
2597.9545	0.032583
2599.8181	0.032935
2601.6818	0.033374
2603.5455	0.033642
2605.4091	0.033779
2607.2728	0.033950
2609.1365	0.034166
2611.0002	0.034461
2612.8638	0.034742
2614.7275	0.034843
2616.5912	0.034961
2618.4548	0.035360
2620.3185	0.035714
2622.1822	0.035878
2624.0458	0.036073
2625.9095	0.036337
2627.7732	0.036517
2629.6368	0.036718
2631.5005	0.037082
2633.3642	0.037429
2635.2279	0.037648
2637.0915	0.037853
2638.9552	0.038080
2640.8189	0.038300
2642.6825	0.038533
2644.5462	0.038739
2646.4099	0.038915
2648.2735	0.039123
2650.1372	0.039340
2652.0009	0.039574
2653.8645	0.039780
2655.7282	0.039961
2657.5919	0.040140
2659.4555	0.040296
2661.3192	0.040372
2663.1829	0.040453
2665.0466	0.040597
2666.9102	0.040783
2668.7739	0.040965
2670.6376	0.041192
2672.5012	0.041437
2674.3649	0.041663
2676.2286	0.041917
2678.0922	0.042144
2679.9559	0.042233
2681.8196	0.042308
2683.6832	0.042486
2685.5469	0.042742
2687.4106	0.043016
2689.2742	0.043291
2691.1379	0.043512
2693.0016	0.043741
2694.8653	0.044045
2696.7289	0.044326
2698.5926	0.044476
2700.4563	0.044647
2702.3199	0.044890
2704.1836	0.045165
2706.0473	0.045423
2707.9109	0.045667
2709.7746	0.045918
2711.6383	0.046216
2713.5019	0.046605
2715.3656	0.047007
2717.2293	0.047353
2719.0930	0.047751
2720.9566	0.048199
2722.8203	0.048567
2724.6840	0.048814
2726.5476	0.049015
2728.4113	0.049331
2730.2750	0.049787
2732.1386	0.050177
2734.0023	0.050528
2735.8660	0.050943
2737.7296	0.051361
2739.5933	0.051711
2741.4570	0.052079
2743.3206	0.052476
2745.1843	0.052891
2747.0480	0.053289
2748.9117	0.053647
2750.7753	0.053892
2752.6390	0.054139
2754.5027	0.054590
2756.3663	0.055004
2758.2300	0.055384
2760.0937	0.055855
2761.9573	0.056352
2763.8210	0.056851
2765.6847	0.057302
2767.5483	0.057741
2769.4120	0.058165
2771.2757	0.058726
2773.1394	0.059287
2775.0030	0.059632
2776.8667	0.059919
2778.7304	0.060335
2780.5940	0.060900
2782.4577	0.061443
2784.3214	0.062032
2786.1850	0.062630
2788.0487	0.063154
2789.9124	0.063598
2791.7760	0.063996
2793.6397	0.064454
2795.5034	0.065097
2797.3670	0.065734
2799.2307	0.066203
2801.0944	0.066547
2802.9581	0.067098
2804.8217	0.067751
2806.6854	0.068385
2808.5491	0.069037
2810.4127	0.069558
2812.2764	0.069969
2814.1401	0.070605
2816.0037	0.071415
2817.8674	0.071966
2819.7311	0.072451
2821.5947	0.073168
2823.4584	0.073849
2825.3221	0.074375
2827.1857	0.074957
2829.0494	0.075777
2830.9131	0.076623
2832.7768	0.077388
2834.6404	0.078216
2836.5041	0.079258
2838.3678	0.080204
2840.2314	0.080981
2842.0951	0.082055
2843.9588	0.083576
2845.8224	0.085215
2847.6861	0.086933
2849.5498	0.088620
2851.4134	0.090268
2853.2771	0.091744
2855.1408	0.093073
2857.0045	0.094169
2858.8681	0.095308
2860.7318	0.096520
2862.5955	0.097942
2864.4591	0.099563
2866.3228	0.101294
2868.1865	0.102824
2870.0501	0.104006
2871.9138	0.104604
2873.7775	0.104618
2875.6411	0.103955
2877.5048	0.103350
2879.3685	0.102939
2881.2321	0.102609
2883.0958	0.102202
2884.9595	0.102168
2886.8232	0.102458
2888.6868	0.103013
2890.5505	0.103612
2892.4142	0.104369
2894.2778	0.105330
2896.1415	0.106429
2898.0052	0.107387
2899.8688	0.108640
2901.7325	0.110122
2903.5962	0.111618
2905.4598	0.112988
2907.3235	0.114594
2909.1872	0.116068
2911.0509	0.117820
2912.9145	0.119611
2914.7782	0.121188
2916.6419	0.122666
2918.5055	0.124405
2920.3692	0.125964
2922.2329	0.127582
2924.0965	0.128935
2925.9602	0.130086
2927.8239	0.130803
2929.6875	0.131065
2931.5512	0.130806
2933.4149	0.130660
2935.2785	0.130167
2937.1422	0.129389
2939.0059	0.128459
2940.8696	0.127687
2942.7332	0.126966
2944.5969	0.126564
2946.4606	0.126447
2948.3242	0.126993
2950.1879	0.127887
2952.0516	0.129223
2953.9152	0.130594
2955.7789	0.131855
2957.6426	0.132627
2959.5062	0.132967
2961.3699	0.132520
2963.2336	0.131535
2965.0972	0.129713
2966.9609	0.127577
2968.8246	0.125257
2970.6883	0.122971
2972.5519	0.120596
2974.4156	0.118331
2976.2793	0.115946
2978.1429	0.114117
2980.0066	0.112378
2981.8703	0.110644
2983.7339	0.109015
2985.5976	0.107996
2987.4613	0.107216
2989.3249	0.106695
2991.1886	0.106243
2993.0523	0.105716
2994.9160	0.105157
2996.7796	0.105140
2998.6433	0.105177
3000.5070	0.105563
3002.3706	0.106251
3004.2343	0.107060
3006.0980	0.107874
3007.9616	0.109113
3009.8253	0.110443
3011.6890	0.111413
3013.5526	0.111912
3015.4163	0.112615
3017.2800	0.113400
3019.1436	0.114452
3021.0073	0.115549
3022.8710	0.117095
3024.7347	0.118443
3026.5983	0.119507
3028.4620	0.120805
3030.3257	0.122414
3032.1893	0.123591
3034.0530	0.124605
3035.9167	0.125324
3037.7803	0.126421
3039.6440	0.127840
3041.5077	0.129097
3043.3713	0.129877
3045.2350	0.130703
3047.0987	0.131484
3048.9624	0.132886
3050.8260	0.134059
3052.6897	0.135022
3054.5534	0.135888
3056.4170	0.136766
3058.2807	0.137422
3060.1444	0.138170
3062.0080	0.139042
3063.8717	0.140003
3065.7354	0.140500
3067.5990	0.140637
3069.4627	0.140396
3071.3264	0.140880
3073.1900	0.141559
3075.0537	0.142097
3076.9174	0.142448
3078.7811	0.142774
3080.6447	0.142640
3082.5084	0.142511
3084.3721	0.142393
3086.2357	0.142286
3088.0994	0.142234
3089.9631	0.142307
3091.8267	0.141966
3093.6904	0.142143
3095.5541	0.142594
3097.4177	0.143407
3099.2814	0.143757
3101.1451	0.143735
3103.0087	0.143851
3104.8724	0.144545
3106.7361	0.145148
3108.5998	0.145825
3110.4634	0.146033
3112.3271	0.146746
3114.1908	0.147697
3116.0544	0.148590
3117.9181	0.148866
3119.7818	0.149472
3121.6454	0.149987
3123.5091	0.150861
3125.3728	0.152048
3127.2364	0.153506
3129.1001	0.154612
3130.9638	0.155806
3132.8275	0.156930
3134.6911	0.158438
3136.5548	0.159644
3138.4185	0.160951
3140.2821	0.161928
3142.1458	0.163177
3144.0095	0.164739
3145.8731	0.166480
3147.7368	0.167733
3149.6005	0.169241
3151.4641	0.170494
3153.3278	0.172086
3155.1915	0.173387
3157.0551	0.174772
3158.9188	0.176048
3160.7825	0.177847
3162.6462	0.179349
3164.5098	0.181076
3166.3735	0.182548
3168.2372	0.184178
3170.1008	0.185592
3171.9645	0.187143
3173.8282	0.188295
3175.6918	0.189913
3177.5555	0.191308
3179.4192	0.192781
3181.2828	0.193931
3183.1465	0.195461
3185.0102	0.196770
3186.8739	0.198309
3188.7375	0.199321
3190.6012	0.200628
3192.4649	0.201488
3194.3285	0.202567
3196.1922	0.203548
3198.0559	0.204921
3199.9195	0.205916
3201.7832	0.207199
3203.6469	0.207843
3205.5105	0.208823
3207.3742	0.209529
3209.2379	0.210759
3211.1015	0.211488
3212.9652	0.212479
3214.8289	0.213236
3216.6926	0.214371
3218.5562	0.215179
3220.4199	0.216284
3222.2836	0.216780
3224.1472	0.217838
3226.0109	0.218748
3227.8746	0.219921
3229.7382	0.220758
3231.6019	0.222125
3233.4656	0.223154
3235.3292	0.224278
3237.1929	0.225021
3239.0566	0.226645
3240.9202	0.227671
3242.7839	0.229078
3244.6476	0.230239
3246.5113	0.231940
3248.3749	0.233060
3250.2386	0.234583
3252.1023	0.235798
3253.9659	0.237521
3255.8296	0.238596
3257.6933	0.239917
3259.5569	0.240895
3261.4206	0.242221
3263.2843	0.242877
3265.1479	0.244209
3267.0116	0.244953
3268.8753	0.246153
3270.7390	0.246286
3272.6026	0.246290
3274.4663	0.245922
3276.3300	0.246035
3278.1936	0.245263
3280.0573	0.244973
3281.9210	0.244341
3283.7846	0.244065
3285.6483	0.242774
3287.5120	0.241844
3289.3756	0.240525
3291.2393	0.239510
3293.1030	0.237777
3294.9666	0.236156
3296.8303	0.233855
3298.6940	0.232324
3300.5577	0.230541
3302.4213	0.229134
3304.2850	0.227225
3306.1487	0.225259
3308.0123	0.222815
3309.8760	0.220957
3311.7397	0.218764
3313.6033	0.217231
3315.4670	0.215304
3317.3307	0.213784
3319.1943	0.212133
3321.0580	0.210731
3322.9217	0.209044
3324.7854	0.207773
3326.6490	0.205645
3328.5127	0.203869
3330.3764	0.202289
3332.2400	0.201474
3334.1037	0.200089
3335.9674	0.198929
3337.8310	0.197482
3339.6947	0.196627
3341.5584	0.195221
3343.4220	0.194141
3345.2857	0.192852
3347.1494	0.192051
3349.0130	0.190785
3350.8767	0.189636
3352.7404	0.188317
3354.6041	0.187530
3356.4677	0.186229
3358.3314	0.185206
3360.1951	0.183886
3362.0587	0.182934
3363.9224	0.181918
3365.7861	0.181291
3367.6497	0.180223
3369.5134	0.179159
3371.3771	0.177801
3373.2407	0.177194
3375.1044	0.176237
3376.9681	0.175241
3378.8317	0.173936
3380.6954	0.173271
3382.5591	0.172392
3384.4228	0.171459
3386.2864	0.170124
3388.1501	0.169078
3390.0138	0.168026
3391.8774	0.167731
3393.7411	0.167283
3395.6048	0.166402
3397.4684	0.164937
3399.3321	0.164124
3401.1958	0.163326
3403.0594	0.163001
3404.9231	0.162048
3406.7868	0.161160
3408.6505	0.159892
3410.5141	0.159070
3412.3778	0.158170
3414.2415	0.157546
3416.1051	0.156439
3417.9688	0.155375
3419.8325	0.154307
3421.6961	0.153568
3423.5598	0.152208
3425.4235	0.151021
3427.2871	0.149818
3429.1508	0.149141
3431.0145	0.148185
3432.8781	0.147159
3434.7418	0.145933
3436.6055	0.145569
3438.4692	0.144895
3440.3328	0.143865
3442.1965	0.142503
3444.0602	0.141275
3445.9238	0.140030
3447.7875	0.139506
3449.6512	0.138372
3451.5148	0.137055
3453.3785	0.135507
3455.2422	0.134364
3457.1058	0.133195
3458.9695	0.132085
3460.8332	0.130853
3462.6969	0.130080
3464.5605	0.128746
3466.4242	0.127182
3468.2879	0.125892
3470.1515	0.125302
3472.0152	0.124263
3473.8789	0.123114
3475.7425	0.121664
3477.6062	0.120412
3479.4699	0.118944
3481.3335	0.117852
3483.1972	0.116646
3485.0609	0.115093
3486.9245	0.113610
3488.7882	0.112641
3490.6519	0.111342
3492.5156	0.110196
3494.3792	0.108743
3496.2429	0.107461
3498.1066	0.106273
3499.9702	0.105100
3501.8339	0.104010
3503.6976	0.103383
3505.5612	0.102063
3507.4249	0.100308
3509.2886	0.098744
3511.1522	0.097725
3513.0159	0.096209
3514.8796	0.095014
3516.7432	0.093895
3518.6069	0.092436
3520.4706	0.090733
3522.3343	0.089332
3524.1979	0.088183
3526.0616	0.087404
3527.9253	0.086420
3529.7889	0.085002
3531.6526	0.083097
3533.5163	0.081373
3535.3799	0.079887
3537.2436	0.078995
3539.1073	0.077981
3540.9709	0.076730
3542.8346	0.075449
3544.6983	0.074279
3546.5620	0.073100
3548.4256	0.071683
3550.2893	0.069932
3552.1530	0.068843
3554.0166	0.067759
3555.8803	0.066206
3557.7440	0.064584
3559.6076	0.063308
3561.4713	0.062372
3563.3350	0.061329
3565.1986	0.059838
3567.0623	0.058642
3568.9260	0.057685
3570.7896	0.056247
3572.6533	0.054626
3574.5170	0.053437
3576.3807	0.052494
3578.2443	0.051253
3580.1080	0.050004
3581.9717	0.048905
3583.8353	0.047778
3585.6990	0.046639
3587.5627	0.045431
3589.4263	0.044070
3591.2900	0.042908
3593.1537	0.041907
3595.0173	0.040937
3596.8810	0.039852
3598.7447	0.038692
3600.6084	0.037853
3602.4720	0.037188
3604.3357	0.036152
3606.1994	0.034873
3608.0630	0.033749
3609.9267	0.032798
3611.7904	0.031748
3613.6540	0.030699
3615.5177	0.029501
3617.3814	0.028360
3619.2450	0.027527
3621.1087	0.027025
3622.9724	0.026397
3624.8360	0.025527
3626.6997	0.024396
3628.5634	0.023122
3630.4271	0.021868
3632.2907	0.021089
3634.1544	0.020621
3636.0181	0.020134
3637.8817	0.019472
3639.7454	0.018783
3641.6091	0.017954
3643.4727	0.016934
3645.3364	0.016010
3647.2001	0.015119
3649.0637	0.013938
3650.9274	0.012900
3652.7911	0.012197
3654.6547	0.011987
3656.5184	0.011476
3658.3821	0.010967
3660.2458	0.010629
3662.1094	0.010234
3663.9731	0.009745
3665.8368	0.009220
3667.7004	0.008525
3669.5641	0.007705
3671.4278	0.006922
3673.2914	0.006351
3675.1551	0.005393
3677.0188	0.004938
3678.8824	0.005172
3680.7461	0.005179
3682.6098	0.005032
3684.4735	0.004912
3686.3371	0.004684
3688.2008	0.004218
3690.0645	0.003549
3691.9281	0.003405
3693.7918	0.003491
3695.6555	0.003486
3697.5191	0.003478
3699.3828	0.003547
3701.2465	0.003455
3703.1101	0.003303
3704.9738	0.003108
3706.8375	0.002939
3708.7011	0.002649
3710.5648	0.002290
3712.4285	0.001955
3714.2922	0.002126
3716.1558	0.002307
3718.0195	0.002323
3719.8832	0.002338
3721.7468	0.002336
3723.6105	0.002178
3725.4742	0.002141
3727.3378	0.002067
3729.2015	0.002119
3731.0652	0.002032
3732.9288	0.001646
3734.7925	0.001348
3736.6562	0.001447
3738.5199	0.001592
3740.3835	0.001839
3742.2472	0.001965
3744.1109	0.001685
3745.9745	0.001285
3747.8382	0.001278
3749.7019	0.000978
3751.5655	0.000622
3753.4292	0.000747
3755.2929	0.001122
3757.1565	0.001456
3759.0202	0.001894
3760.8839	0.002164
3762.7475	0.002075
3764.6112	0.002013
3766.4749	0.002303
3768.3386	0.002409
3770.2022	0.002235
3772.0659	0.002204
3773.9296	0.002222
3775.7932	0.002094
3777.6569	0.002073
3779.5206	0.002082
3781.3842	0.002125
3783.2479	0.002182
3785.1116	0.002241
3786.9752	0.002271
3788.8389	0.002150
3790.7026	0.002118
3792.5662	0.002360
3794.4299	0.002511
3796.2936	0.002427
3798.1573	0.002326
3800.0209	0.002183
3801.8846	0.001845
3803.7483	0.001786
3805.6119	0.001794
3807.4756	0.001730
3809.3393	0.001854
3811.2029	0.002176
3813.0666	0.002365
3814.9303	0.002342
3816.7939	0.002136
3818.6576	0.001837
3820.5213	0.001590
3822.3850	0.001546
3824.2486	0.001787
3826.1123	0.001893
3827.9760	0.002028
3829.8396	0.002298
3831.7033	0.002280
3833.5670	0.002208
3835.4306	0.002060
3837.2943	0.001717
3839.1580	0.001547
3841.0216	0.001661
3842.8853	0.001809
3844.7490	0.001939
3846.6126	0.002197
3848.4763	0.002478
3850.3400	0.002408
3852.2037	0.002015
3854.0673	0.001588
3855.9310	0.001647
3857.7947	0.001957
3859.6583	0.002169
3861.5220	0.002275
3863.3857	0.002300
3865.2493	0.002253
3867.1130	0.002256
3868.9767	0.002243
3870.8403	0.002178
3872.7040	0.002281
3874.5677	0.002397
3876.4314	0.002371
3878.2950	0.002411
3880.1587	0.002571
3882.0224	0.002721
3883.8860	0.002568
3885.7497	0.002415
3887.6134	0.002603
3889.4770	0.002651
3891.3407	0.002534
3893.2044	0.002666
3895.0680	0.002823
3896.9317	0.002839
3898.7954	0.002746
3900.6590	0.002639
3902.5227	0.002736
3904.3864	0.002767
3906.2501	0.002811
3908.1137	0.002892
3909.9774	0.002862
3911.8411	0.002864
3913.7047	0.003041
3915.5684	0.003239
3917.4321	0.003311
3919.2957	0.003200
3921.1594	0.003157
3923.0231	0.003299
3924.8867	0.003263
3926.7504	0.003056
3928.6141	0.002965
3930.4777	0.002954
3932.3414	0.002954
3934.2051	0.002986
3936.0688	0.003170
3937.9324	0.003412
3939.7961	0.003564
3941.6598	0.003472
3943.5234	0.003269
3945.3871	0.003172
3947.2508	0.003197
3949.1144	0.003277
3950.9781	0.003477
3952.8418	0.003531
3954.7054	0.003408
3956.5691	0.003352
3958.4328	0.003341
3960.2965	0.003323
3962.1601	0.003437
3964.0238	0.003465
3965.8875	0.003387
3967.7511	0.003194
3969.6148	0.003017
3971.4785	0.003097
3973.3421	0.003314
3975.2058	0.003460
3977.0695	0.003577
3978.9331	0.003580
3980.7968	0.003485
3982.6605	0.003336
3984.5241	0.003289
3986.3878	0.003307
3988.2515	0.003327
3990.1152	0.003313
3991.9788	0.003343
3993.8425	0.003351
3995.7062	0.003328
3997.5698	0.003290
3999.4335	0.003346
