Wavenumber,Intensity
650.4205,0.079144
652.2841,0.078809
654.1478,0.078377
656.0115,0.081295
657.8751,0.080001
659.7388,0.075260
661.6025,0.075198
663.4661,0.076515
665.3298,0.075847
667.1935,0.075816
669.0571,0.075768
670.9208,0.074606
672.7845,0.072950
674.6481,0.071683
676.5118,0.070789
678.3755,0.068990
680.2392,0.068928
682.1028,0.070745
683.9665,0.071312
685.8302,0.070520
687.6938,0.068745
689.5575,0.067584
691.4212,0.067784
693.2848,0.067670
695.1485,0.067084
697.0122,0.066938
698.8758,0.066479
700.7395,0.066394
702.6032,0.066087
704.4669,0.065361
706.3305,0.064812
708.1942,0.064244
710.0579,0.062405
711.9215,0.060080
713.7852,0.059538
715.6489,0.059814
717.5125,0.059241
719.3762,0.058725
721.2399,0.058321
723.1035,0.057823
724.9672,0.057154
726.8309,0.056668
728.6945,0.056560
730.5582,0.056176
732.4219,0.055216
734.2856,0.055055
736.1492,0.055281
738.0129,0.054461
739.8766,0.053604
741.7402,0.053691
743.6039,0.054034
745.4676,0.053663
747.3312,0.052956
749.1949,0.052703
751.0586,0.052031
752.9222,0.051297
754.7859,0.050924
756.6496,0.050712
758.5132,0.050598
760.3769,0.050320
762.2406,0.049909
764.1043,0.049494
765.9679,0.048922
767.8316,0.048605
769.6953,0.048244
771.5589,0.047567
773.4226,0.047100
775.2863,0.047159
777.1499,0.046967
779.0136,0.046176
780.8773,0.045769
782.7409,0.045720
784.6046,0.045147
786.4683,0.044835
788.3320,0.044736
790.1956,0.044257
792.0593,0.043663
793.9230,0.043515
795.7866,0.043449
797.6503,0.043113
799.5140,0.042732
801.3776,0.042459
803.2413,0.042264
805.1050,0.042183
806.9686,0.041860
808.8323,0.041305
810.6960,0.040913
812.5596,0.040985
814.4233,0.041035
816.2870,0.040775
818.1507,0.040491
820.0143,0.040110
821.8780,0.039673
823.7417,0.039109
825.6053,0.038762
827.4690,0.038696
829.3327,0.038336
831.1963,0.038105
833.0600,0.037826
834.9237,0.037571
836.7873,0.037235
838.6510,0.036770
840.5147,0.036331
842.3784,0.036073
844.2420,0.035864
846.1057,0.035540
847.9694,0.035303
849.8330,0.035236
851.6967,0.034882
853.5604,0.034697
855.4240,0.034794
857.2877,0.034715
859.1514,0.034570
861.0150,0.034501
862.8787,0.034521
864.7424,0.034604
866.6060,0.034555
868.4697,0.034448
870.3334,0.034497
872.1971,0.034695
874.0607,0.034785
875.9244,0.034595
877.7881,0.034537
879.6517,0.034632
881.5154,0.034206
883.3791,0.033779
885.2427,0.033711
887.1064,0.033724
888.9701,0.033719
890.8337,0.033569
892.6974,0.033533
894.5611,0.033672
896.4247,0.033658
898.2884,0.033531
900.1521,0.033290
902.0158,0.033202
903.8794,0.033110
905.7431,0.032909
907.6068,0.032799
909.4704,0.032860
911.3341,0.032976
913.1978,0.033144
915.0614,0.033429
916.9251,0.033752
918.7888,0.033971
920.6524,0.033945
922.5161,0.033944
924.3798,0.033972
926.2435,0.033992
928.1071,0.034121
929.9708,0.034156
931.8345,0.034076
933.6981,0.034013
935.5618,0.034048
937.4255,0.034223
939.2891,0.034439
941.1528,0.034607
943.0165,0.034768
944.8801,0.034926
946.7438,0.034966
948.6075,0.034847
950.4711,0.034796
952.3348,0.034874
954.1985,0.034915
956.0622,0.035052
957.9258,0.035448
959.7895,0.036024
961.6532,0.036686
963.5168,0.037467
965.3805,0.038300
967.2442,0.038813
969.1078,0.039064
970.9715,0.039153
972.8352,0.039056
974.6988,0.038960
976.5625,0.039142
978.4262,0.039471
980.2899,0.039836
982.1535,0.040334
984.0172,0.040908
985.8809,0.041452
987.7445,0.042067
989.6082,0.042646
991.4719,0.043285
993.3355,0.044093
995.1992,0.044889
997.0629,0.045618
998.9265,0.046423
1000.7902,0.047239
1002.6539,0.048037
1004.5175,0.048806
1006.3812,0.049750
1008.2449,0.050972
1010.1086,0.052327
1011.9722,0.053791
1013.8359,0.055338
1015.6996,0.056831
1017.5632,0.058259
1019.4269,0.059548
1021.2906,0.060598
1023.1542,0.061341
1025.0179,0.061921
1026.8816,0.062454
1028.7452,0.062995
1030.6089,0.063469
1032.4726,0.063757
1034.3362,0.063818
1036.1999,0.063722
1038.0636,0.063544
1039.9273,0.063332
1041.7909,0.063032
1043.6546,0.062644
1045.5183,0.062351
1047.3819,0.062072
1049.2456,0.061810
1051.1093,0.061663
1052.9729,0.061614
1054.8366,0.061637
1056.7003,0.061773
1058.5639,0.061940
1060.4276,0.062117
1062.2913,0.062237
1064.1550,0.062453
1066.0186,0.062742
1067.8823,0.062913
1069.7460,0.062941
1071.6096,0.062767
1073.4733,0.062448
1075.3370,0.061884
1077.2006,0.061085
1079.0643,0.059974
1080.9280,0.058576
1082.7916,0.057115
1084.6553,0.055547
1086.5190,0.054036
1088.3826,0.052776
1090.2463,0.051631
1092.1100,0.050737
1093.9737,0.049983
1095.8373,0.049271
1097.7010,0.048682
1099.5647,0.048200
1101.4283,0.047795
1103.2920,0.047480
1105.1557,0.047340
1107.0193,0.047343
1108.8830,0.047308
1110.7467,0.047304
1112.6103,0.047291
1114.4740,0.047228
1116.3377,0.047013
1118.2014,0.046602
1120.0650,0.046233
1121.9287,0.045964
1123.7924,0.045635
1125.6560,0.045259
1127.5197,0.044786
1129.3834,0.044384
1131.2470,0.043951
1133.1107,0.043413
1134.9744,0.042837
1136.8380,0.042287
1138.7017,0.041918
1140.5654,0.041642
1142.4290,0.041438
1144.2927,0.041373
1146.1564,0.041435
1148.0201,0.041608
1149.8837,0.041808
1151.7474,0.041988
1153.6111,0.042088
1155.4747,0.042133
1157.3384,0.042058
1159.2021,0.041856
1161.0657,0.041632
1162.9294,0.041355
1164.7931,0.040949
1166.6567,0.040469
1168.5204,0.039861
1170.3841,0.039029
1172.2477,0.038056
1174.1114,0.037205
1175.9751,0.036307
1177.8388,0.035452
1179.7024,0.034858
1181.5661,0.034459
1183.4298,0.034246
1185.2934,0.034272
1187.1571,0.034451
1189.0208,0.034658
1190.8844,0.034964
1192.7481,0.035301
1194.6118,0.035793
1196.4754,0.036304
1198.3391,0.036816
1200.2028,0.037370
1202.0665,0.037947
1203.9301,0.038405
1205.7938,0.038807
1207.6575,0.039177
1209.5211,0.039540
1211.3848,0.039870
1213.2485,0.040159
1215.1121,0.040604
1216.9758,0.041181
1218.8395,0.041795
1220.7031,0.042404
1222.5668,0.043045
1224.4305,0.043759
1226.2941,0.044515
1228.1578,0.045111
1230.0215,0.045503
1231.8852,0.045833
1233.7488,0.046112
1235.6125,0.046383
1237.4762,0.046593
1239.3398,0.046570
1241.2035,0.046363
1243.0672,0.046132
1244.9308,0.045777
1246.7945,0.045294
1248.6582,0.044787
1250.5218,0.044448
1252.3855,0.044092
1254.2492,0.043636
1256.1129,0.043199
1257.9765,0.042850
1259.8402,0.042541
1261.7039,0.042234
1263.5675,0.041969
1265.4312,0.041816
1267.2949,0.041631
1269.1585,0.041403
1271.0222,0.041320
1272.8859,0.041209
1274.7495,0.041002
1276.6132,0.040867
1278.4769,0.040783
1280.3405,0.040709
1282.2042,0.040614
1284.0679,0.040543
1285.9316,0.040439
1287.7952,0.040445
1289.6589,0.040450
1291.5226,0.040397
1293.3862,0.040465
1295.2499,0.040605
1297.1136,0.040854
1298.9772,0.041102
1300.8409,0.041325
1302.7046,0.041534
1304.5682,0.041660
1306.4319,0.041882
1308.2956,0.042114
1310.1592,0.042300
1312.0229,0.042551
1313.8866,0.042575
1315.7503,0.042308
1317.6139,0.042270
1319.4776,0.042238
1321.3413,0.041856
1323.2049,0.041471
1325.0686,0.041323
1326.9323,0.041065
1328.7959,0.040768
1330.6596,0.040737
1332.5233,0.040780
1334.3869,0.040653
1336.2506,0.040579
1338.1143,0.040944
1339.9780,0.041446
1341.8416,0.041220
1343.7053,0.040813
1345.5690,0.040734
1347.4326,0.040687
1349.2963,0.040657
1351.1600,0.040590
1353.0236,0.040486
1354.8873,0.040576
1356.7510,0.040665
1358.6146,0.040570
1360.4783,0.041036
1362.3420,0.042389
1364.2056,0.043138
1366.0693,0.043145
1367.9330,0.043816
1369.7967,0.044533
1371.6603,0.044871
1373.5240,0.045900
1375.3877,0.046925
1377.2513,0.047105
1379.1150,0.047350
1380.9787,0.047589
1382.8423,0.047616
1384.7060,0.047634
1386.5697,0.048374
1388.4333,0.048897
1390.2970,0.048291
1392.1607,0.047839
1394.0244,0.048493
1395.8880,0.049158
1397.7517,0.049154
1399.6154,0.049253
1401.4790,0.048393
1403.3427,0.047865
1405.2064,0.048120
1407.0700,0.047861
1408.9337,0.047317
1410.7974,0.047168
1412.6610,0.046733
1414.5247,0.045983
1416.3884,0.045595
1418.2520,0.046566
1420.1157,0.047068
1421.9794,0.045896
1423.8431,0.045807
1425.7067,0.045774
1427.5704,0.045456
1429.4341,0.046396
1431.2977,0.047171
1433.1614,0.046979
1435.0251,0.047776
1436.8887,0.050379
1438.7524,0.050658
1440.6161,0.050136
1442.4797,0.050308
1444.3434,0.050259
1446.2071,0.050457
1448.0707,0.051204
1449.9344,0.050912
1451.7981,0.049727
1453.6618,0.048456
1455.5254,0.048378
1457.3891,0.050438
1459.2528,0.049139
1461.1164,0.046401
1462.9801,0.045247
1464.8438,0.045843
1466.7074,0.044989
1468.5711,0.042839
1470.4348,0.041473
1472.2984,0.042182
1474.1621,0.042040
1476.0258,0.040871
1477.8895,0.039934
1479.7531,0.039394
1481.6168,0.039646
1483.4805,0.039702
1485.3441,0.039928
1487.2078,0.041578
1489.0715,0.044487
1490.9351,0.046515
1492.7988,0.046314
1494.6625,0.047117
1496.5261,0.050533
1498.3898,0.053415
1500.2535,0.054239
1502.1171,0.053886
1503.9808,0.053977
1505.8445,0.058673
1507.7082,0.065258
1509.5718,0.065176
1511.4355,0.065053
1513.2992,0.065600
1515.1628,0.066362
1517.0265,0.067516
1518.8902,0.067531
1520.7538,0.068728
1522.6175,0.070390
1524.4812,0.070097
1526.3448,0.070664
1528.2085,0.070925
1530.0722,0.070356
1531.9359,0.070608
1533.7995,0.071646
1535.6632,0.070311
1537.5269,0.068954
1539.3905,0.070561
1541.2542,0.072366
1543.1179,0.070954
1544.9815,0.069429
1546.8452,0.067723
1548.7089,0.066319
1550.5725,0.064983
1552.4362,0.063221
1554.2999,0.061331
1556.1635,0.059291
1558.0272,0.059853
1559.8909,0.060765
1561.7546,0.057195
1563.6182,0.054673
1565.4819,0.053062
1567.3456,0.051743
1569.2092,0.051550
1571.0729,0.050747
1572.9366,0.048713
1574.8002,0.048209
1576.6639,0.049373
1578.5276,0.048577
1580.3912,0.047307
1582.2549,0.047076
1584.1186,0.047212
1585.9822,0.047494
1587.8459,0.048044
1589.7096,0.048719
1591.5733,0.049417
1593.4369,0.050431
1595.3006,0.051736
1597.1643,0.053095
1599.0279,0.054395
1600.8916,0.055889
1602.7553,0.057684
1604.6189,0.059584
1606.4826,0.061641
1608.3463,0.063819
1610.2099,0.065578
1612.0736,0.067150
1613.9373,0.068609
1615.8010,0.071185
1617.6646,0.074073
1619.5283,0.074381
1621.3920,0.074625
1623.2556,0.076850
1625.1193,0.078376
1626.9830,0.078534
1628.8466,0.078848
1630.7103,0.078653
1632.5740,0.077826
1634.4376,0.077934
1636.3013,0.078722
1638.1650,0.077458
1640.0286,0.075583
1641.8923,0.073802
1643.7560,0.072252
1645.6197,0.071918
1647.4833,0.071292
1649.3470,0.068601
1651.2107,0.066440
1653.0743,0.066689
1654.9380,0.064841
1656.8017,0.061669
1658.6653,0.059212
1660.5290,0.057441
1662.3927,0.055974
1664.2563,0.053954
1666.1200,0.051492
1667.9837,0.049865
1669.8474,0.048592
1671.7110,0.046320
1673.5747,0.044285
1675.4384,0.042995
1677.3020,0.040924
1679.1657,0.038620
1681.0294,0.036560
1682.8930,0.035072
1684.7567,0.033737
1686.6204,0.031218
1688.4840,0.028639
1690.3477,0.026237
1692.2114,0.023844
1694.0750,0.021666
1695.9387,0.019981
1697.8024,0.018010
1699.6661,0.016321
1701.5297,0.014829
1703.3934,0.012844
1705.2571,0.011591
1707.1207,0.010823
1708.9844,0.009818
1710.8481,0.008896
1712.7117,0.008367
1714.5754,0.008138
1716.4391,0.007999
1718.3027,0.008157
1720.1664,0.007678
1722.0301,0.006759
1723.8937,0.006545
1725.7574,0.006523
1727.6211,0.006259
1729.4848,0.006030
1731.3484,0.005806
1733.2121,0.006018
1735.0758,0.006935
1736.9394,0.006720
1738.8031,0.006391
1740.6668,0.006489
1742.5304,0.006467
1744.3941,0.006303
1746.2578,0.005941
1748.1214,0.005555
1749.9851,0.005228
1751.8488,0.004691
1753.7125,0.003647
1755.5761,0.002552
1757.4398,0.002193
1759.3035,0.001786
1761.1671,0.001190
1763.0308,0.001121
1764.8945,0.000778
1766.7581,0.000373
1768.6218,0.000547
1770.4855,0.000416
1772.3491,0.000412
1774.2128,0.000357
1776.0765,-0.000079
1777.9401,-0.000255
1779.8038,-0.000238
1781.6675,-0.000113
1783.5312,-0.000022
1785.3948,-0.000081
1787.2585,-0.000183
1789.1222,-0.000190
1790.9858,-0.000224
1792.8495,-0.000172
1794.7132,-0.000142
1796.5768,-0.000405
1798.4405,-0.000590
1800.3042,-0.000500
1802.1678,-0.000294
1804.0315,-0.000343
1805.8952,-0.000531
1807.7589,-0.000554
1809.6225,-0.000489
1811.4862,-0.000523
1813.3499,-0.000614
1815.2135,-0.000870
1817.0772,-0.001057
1818.9409,-0.000801
1820.8045,-0.000586
1822.6682,-0.000731
1824.5319,-0.000793
1826.3955,-0.000607
1828.2592,-0.000473
1830.1229,-0.000159
1831.9865,-0.000152
1833.8502,-0.000583
1835.7139,-0.000458
1837.5776,-0.000106
1839.4412,-0.000191
1841.3049,-0.000611
1843.1686,-0.000990
1845.0322,-0.000436
1846.8959,-0.000010
1848.7596,-0.000208
1850.6232,-0.000296
1852.4869,-0.000474
1854.3506,-0.000678
1856.2142,-0.000571
1858.0779,-0.000194
1859.9416,0.000078
1861.8052,-0.000155
1863.6689,-0.000522
1865.5326,-0.000397
1867.3963,-0.000212
1869.2599,-0.000224
1871.1236,-0.000241
1872.9873,-0.000360
1874.8509,-0.000279
1876.7146,-0.000318
1878.5783,-0.000458
1880.4419,-0.000343
1882.3056,-0.000384
1884.1693,-0.000377
1886.0329,-0.000181
1887.8966,-0.000103
1889.7603,-0.000090
1891.6240,-0.000052
1893.4876,0.000043
1895.3513,0.000192
1897.2150,0.000258
1899.0786,0.000340
1900.9423,0.000682
1902.8060,0.000626
1904.6696,0.000478
1906.5333,0.000666
1908.3970,0.000483
1910.2606,0.000223
1912.1243,0.000272
1913.9880,0.000622
1915.8516,0.000770
1917.7153,0.000529
1919.5790,0.000713
1921.4427,0.000964
1923.3063,0.001000
1925.1700,0.000699
1927.0337,0.000495
1928.8973,0.000932
1930.7610,0.001380
1932.6247,0.000965
1934.4883,0.000281
1936.3520,0.000553
1938.2157,0.001042
1940.0793,0.000849
1941.9430,0.000631
1943.8067,0.001150
1945.6704,0.001283
1947.5340,0.000862
1949.3977,0.000845
1951.2614,0.001379
1953.1250,0.001812
1954.9887,0.001180
1956.8524,0.001230
1958.7160,0.001814
1960.5797,0.001159
1962.4434,0.000942
1964.3070,0.001941
1966.1707,0.001993
1968.0344,0.001366
1969.8980,0.001476
1971.7617,0.001433
1973.6254,0.000675
1975.4891,0.001263
1977.3527,0.003435
1979.2164,0.005211
1981.0801,0.005047
1982.9437,0.003777
1984.8074,0.003005
1986.6711,0.002781
1988.5347,0.003221
1990.3984,0.003049
1992.2621,0.002129
1994.1257,0.001643
1995.9894,0.002272
1997.8531,0.002456
1999.7167,0.002054
2001.5804,0.002783
2003.4441,0.003433
2005.3078,0.003018
2007.1714,0.002696
2009.0351,0.002162
2010.8988,0.001930
2012.7624,0.003631
2014.6261,0.004582
2016.4898,0.003485
2018.3534,0.002272
2020.2171,0.001814
2022.0808,0.003272
2023.9444,0.004079
2025.8081,0.003571
2027.6718,0.003571
2029.5355,0.004146
2031.3991,0.004923
2033.2628,0.004833
2035.1265,0.005672
2036.9901,0.005818
2038.8538,0.005001
2040.7175,0.004942
2042.5811,0.005117
2044.4448,0.005848
2046.3085,0.006686
2048.1721,0.007127
2050.0358,0.007536
2051.8995,0.006539
2053.7631,0.005894
2055.6268,0.006369
2057.4905,0.006506
2059.3542,0.006255
2061.2178,0.006008
2063.0815,0.005873
2064.9452,0.005507
2066.8088,0.005101
2068.6725,0.005150
2070.5362,0.005729
2072.3998,0.006415
2074.2635,0.005643
2076.1272,0.004565
2077.9908,0.004403
2079.8545,0.004648
2081.7182,0.004339
2083.5819,0.003849
2085.4455,0.003608
2087.3092,0.003236
2089.1729,0.002650
2091.0365,0.002956
2092.9002,0.003613
2094.7639,0.003538
2096.6275,0.003183
2098.4912,0.003482
2100.3549,0.003876
2102.2185,0.003839
2104.0822,0.003359
2105.9459,0.003073
2107.8095,0.003421
2109.6732,0.003361
2111.5369,0.003040
2113.4006,0.003689
2115.2642,0.003619
2117.1279,0.002608
2118.9916,0.002465
2120.8552,0.002555
2122.7189,0.002129
2124.5826,0.002003
2126.4462,0.002485
2128.3099,0.002583
2130.1736,0.002141
2132.0372,0.002184
2133.9009,0.002793
2135.7646,0.002428
2137.6282,0.001756
2139.4919,0.002250
2141.3556,0.002791
2143.2193,0.003052
2145.0829,0.003364
2146.9466,0.003289
2148.8103,0.003170
2150.6739,0.002247
2152.5376,0.001338
2154.4013,0.001267
2156.2649,0.001849
2158.1286,0.004219
2159.9923,0.007294
2161.8559,0.008202
2163.7196,0.006815
2165.5833,0.006166
2167.4470,0.006054
2169.3106,0.004794
2171.1743,0.003139
2173.0380,0.003319
2174.9016,0.004152
2176.7653,0.004727
2178.6290,0.004163
2180.4926,0.003583
2182.3563,0.004336
2184.2200,0.005076
2186.0836,0.004222
2187.9473,0.003371
2189.8110,0.003150
2191.6746,0.003997
2193.5383,0.004473
2195.4020,0.004428
2197.2657,0.005130
2199.1293,0.005427
2200.9930,0.004857
2202.8567,0.004885
2204.7203,0.005175
2206.5840,0.004996
2208.4477,0.004943
2210.3113,0.004501
2212.1750,0.003707
2214.0387,0.003514
2215.9023,0.004158
2217.7660,0.004454
2219.6297,0.004090
2221.4934,0.004058
2223.3570,0.004006
2225.2207,0.004151
2227.0844,0.004067
2228.9480,0.003991
2230.8117,0.004407
2232.6754,0.004487
2234.5390,0.004144
2236.4027,0.004370
2238.2664,0.004586
2240.1300,0.004333
2241.9937,0.003429
2243.8574,0.002930
2245.7210,0.003152
2247.5847,0.003828
2249.4484,0.004100
2251.3121,0.003395
2253.1757,0.002531
2255.0394,0.003237
2256.9031,0.004224
2258.7667,0.004008
2260.6304,0.003056
2262.4941,0.003197
2264.3577,0.003999
2266.2214,0.004075
2268.0851,0.003711
2269.9487,0.003310
2271.8124,0.003087
2273.6761,0.003574
2275.5397,0.004317
2277.4034,0.004442
2279.2671,0.004717
2281.1308,0.004591
2282.9944,0.004338
2284.8581,0.004375
2286.7218,0.004265
2288.5854,0.003945
2290.4491,0.003857
2292.3128,0.004113
2294.1764,0.004014
2296.0401,0.003781
2297.9038,0.003437
2299.7674,0.003433
2301.6311,0.003664
2303.4948,0.003757
2305.3585,0.003414
2307.2221,0.003066
2309.0858,0.003298
2310.9495,0.003293
2312.8131,0.003323
2314.6768,0.003468
2316.5405,0.003370
2318.4041,0.003367
2320.2678,0.003772
2322.1315,0.004204
2323.9951,0.003983
2325.8588,0.003584
2327.7225,0.003149
2329.5861,0.003015
2331.4498,0.002733
2333.3135,0.002777
2335.1772,0.002889
2337.0408,0.002552
2338.9045,0.003078
2340.7682,0.003536
2342.6318,0.003633
2344.4955,0.003952
2346.3592,0.003506
2348.2228,0.002593
2350.0865,0.001917
2351.9502,0.001747
2353.8138,0.002076
2355.6775,0.002321
2357.5412,0.002448
2359.4049,0.003043
2361.2685,0.003405
2363.1322,0.003957
2364.9959,0.004016
2366.8595,0.003565
2368.7232,0.003735
2370.5869,0.003815
2372.4505,0.003559
2374.3142,0.003844
2376.1779,0.004087
2378.0415,0.003791
2379.9052,0.003359
2381.7689,0.003257
2383.6325,0.003386
2385.4962,0.003383
2387.3599,0.003339
2389.2236,0.003395
2391.0872,0.003178
2392.9509,0.002955
2394.8146,0.003076
2396.6782,0.003151
2398.5419,0.002886
2400.4056,0.002673
2402.2692,0.002773
2404.1329,0.002958
2405.9966,0.003417
2407.8602,0.003643
2409.7239,0.003582
2411.5876,0.003423
2413.4512,0.003300
2415.3149,0.003423
2417.1786,0.003255
2419.0423,0.003195
2420.9059,0.003606
2422.7696,0.003713
2424.6333,0.003400
2426.4969,0.003275
2428.3606,0.003412
2430.2243,0.003788
2432.0879,0.004043
2433.9516,0.003953
2435.8153,0.003984
2437.6789,0.003823
2439.5426,0.003587
2441.4063,0.003889
2443.2700,0.004169
2445.1336,0.004272
2446.9973,0.004260
2448.8610,0.003990
2450.7246,0.004003
2452.5883,0.004187
2454.4520,0.004206
2456.3156,0.004087
2458.1793,0.004247
2460.0430,0.004456
2461.9066,0.004441
2463.7703,0.004390
2465.6340,0.004327
2467.4976,0.004173
2469.3613,0.004039
2471.2250,0.004058
2473.0887,0.004091
2474.9523,0.004373
2476.8160,0.004488
2478.6797,0.004693
2480.5433,0.004842
2482.4070,0.004534
2484.2707,0.004369
2486.1343,0.004589
2487.9980,0.004458
2489.8617,0.004294
2491.7253,0.004570
2493.5890,0.004854
2495.4527,0.004866
2497.3164,0.004890
2499.1800,0.005053
2501.0437,0.004918
2502.9074,0.004733
2504.7710,0.004723
2506.6347,0.004700
2508.4984,0.004947
2510.3620,0.005231
2512.2257,0.005234
2514.0894,0.005081
2515.9530,0.005088
2517.8167,0.005244
2519.6804,0.005154
2521.5440,0.005020
2523.4077,0.004970
2525.2714,0.005253
2527.1351,0.005642
2528.9987,0.005714
2530.8624,0.005651
2532.7261,0.005434
2534.5897,0.005516
2536.4534,0.005404
2538.3171,0.005312
2540.1807,0.005557
2542.0444,0.005565
2543.9081,0.005469
2545.7717,0.005926
2547.6354,0.006151
2549.4991,0.005697
2551.3627,0.005414
2553.2264,0.005753
2555.0901,0.005838
2556.9538,0.006088
2558.8174,0.006463
2560.6811,0.006183
2562.5448,0.005811
2564.4084,0.005989
2566.2721,0.006135
2568.1358,0.006132
2569.9994,0.006258
2571.8631,0.006187
2573.7268,0.006182
2575.5904,0.006190
2577.4541,0.006205
2579.3178,0.006348
2581.1815,0.006296
2583.0451,0.006398
2584.9088,0.006590
2586.7725,0.006618
2588.6361,0.006750
2590.4998,0.006922
2592.3635,0.006875
2594.2271,0.006612
2596.0908,0.006435
2597.9545,0.006901
2599.8181,0.007126
2601.6818,0.007095
2603.5455,0.007221
2605.4091,0.007154
2607.2728,0.007070
2609.1365,0.007286
2611.0002,0.007360
2612.8638,0.007425
2614.7275,0.007583
2616.5912,0.007697
2618.4548,0.007857
2620.3185,0.007988
2622.1822,0.007973
2624.0458,0.007957
2625.9095,0.007687
2627.7732,0.007600
2629.6368,0.007925
2631.5005,0.008129
2633.3642,0.008212
2635.2279,0.008442
2637.0915,0.008439
2638.9552,0.008210
2640.8189,0.008191
2642.6825,0.008321
2644.5462,0.008527
2646.4099,0.008715
2648.2735,0.008735
2650.1372,0.008703
2652.0009,0.008605
2653.8645,0.008557
2655.7282,0.008633
2657.5919,0.008729
2659.4555,0.008806
2661.3192,0.008725
2663.1829,0.008611
2665.0466,0.008594
2666.9102,0.008476
2668.7739,0.008392
2670.6376,0.008493
2672.5012,0.008574
2674.3649,0.008761
2676.2286,0.008893
2678.0922,0.008751
2679.9559,0.008814
2681.8196,0.008995
2683.6832,0.009033
2685.5469,0.008983
2687.4106,0.009000
2689.2742,0.009093
2691.1379,0.009299
2693.0016,0.009292
2694.8653,0.009280
2696.7289,0.009532
2698.5926,0.009576
2700.4563,0.009449
2702.3199,0.009438
2704.1836,0.009558
2706.0473,0.009621
2707.9109,0.009751
2709.7746,0.009942
2711.6383,0.009902
2713.5019,0.009972
2715.3656,0.010055
2717.2293,0.010075
2719.0930,0.010303
2720.9566,0.010573
2722.8203,0.010700
2724.6840,0.010876
2726.5476,0.011027
2728.4113,0.011055
2730.2750,0.010980
2732.1386,0.011010
2734.0023,0.011232
2735.8660,0.011532
2737.7296,0.011522
2739.5933,0.011384
2741.4570,0.011599
2743.3206,0.011795
2745.1843,0.011807
2747.0480,0.011900
2748.9117,0.012027
2750.7753,0.012036
2752.6390,0.012275
2754.5027,0.012559
2756.3663,0.012532
2758.2300,0.012569
2760.0937,0.012776
2761.9573,0.013047
2763.8210,0.013064
2765.6847,0.012967
2767.5483,0.012988
2769.4120,0.013114
2771.2757,0.013384
2773.1394,0.013662
2775.0030,0.013776
2776.8667,0.013859
2778.7304,0.013947
2780.5940,0.014006
2782.4577,0.014025
2784.3214,0.014241
2786.1850,0.014568
2788.0487,0.014760
2789.9124,0.014867
2791.7760,0.014981
2793.6397,0.014963
2795.5034,0.015110
2797.3670,0.015263
2799.2307,0.015329
2801.0944,0.015736
2802.9581,0.015928
2804.8217,0.015779
2806.6854,0.015893
2808.5491,0.015990
2810.4127,0.016039
2812.2764,0.016229
2814.1401,0.016425
2816.0037,0.016516
2817.8674,0.016825
2819.7311,0.017217
2821.5947,0.017362
2823.4584,0.017418
2825.3221,0.017647
2827.1857,0.017757
2829.0494,0.017911
2830.9131,0.018218
2832.7768,0.018534
2834.6404,0.018948
2836.5041,0.019311
2838.3678,0.019515
2840.2314,0.019624
2842.0951,0.020010
2843.9588,0.020762
2845.8224,0.021652
2847.6861,0.022340
2849.5498,0.022789
2851.4134,0.023276
2853.2771,0.023625
2855.1408,0.023457
2857.0045,0.023100
2858.8681,0.023170
2860.7318,0.023272
2862.5955,0.023187
2864.4591,0.023346
2866.3228,0.023660
2868.1865,0.023591
2870.0501,0.023535
2871.9138,0.023846
2873.7775,0.024181
2875.6411,0.024346
2877.5048,0.024145
2879.3685,0.023902
2881.2321,0.023962
2883.0958,0.023906
2884.9595,0.023898
2886.8232,0.024227
2888.6868,0.024529
2890.5505,0.024508
2892.4142,0.024480
2894.2778,0.024615
2896.1415,0.024951
2898.0052,0.025377
2899.8688,0.025701
2901.7325,0.025939
2903.5962,0.026185
2905.4598,0.026495
2907.3235,0.026794
2909.1872,0.027243
2911.0509,0.027822
2912.9145,0.028389
2914.7782,0.028945
2916.6419,0.029610
2918.5055,0.030319
2920.3692,0.030695
2922.2329,0.030798
2924.0965,0.030800
2925.9602,0.030854
2927.8239,0.030862
2929.6875,0.030585
2931.5512,0.030059
2933.4149,0.029797
2935.2785,0.029648
2937.1422,0.029058
2939.0059,0.028580
2940.8696,0.028338
2942.7332,0.027954
2944.5969,0.027694
2946.4606,0.027596
2948.3242,0.027573
2950.1879,0.027627
2952.0516,0.027662
2953.9152,0.027583
2955.7789,0.027589
2957.6426,0.027812
2959.5062,0.028061
2961.3699,0.027951
2963.2336,0.027804
2965.0972,0.027582
2966.9609,0.026972
2968.8246,0.026465
2970.6883,0.026143
2972.5519,0.025744
2974.4156,0.025402
2976.2793,0.025190
2978.1429,0.025222
2980.0066,0.024984
2981.8703,0.024503
2983.7339,0.024266
2985.5976,0.024114
2987.4613,0.023847
2989.3249,0.023408
2991.1886,0.023076
2993.0523,0.022956
2994.9160,0.023028
2996.7796,0.023312
2998.6433,0.023388
3000.5070,0.023248
3002.3706,0.023171
3004.2343,0.023334
3006.0980,0.023589
3007.9616,0.023729
3009.8253,0.023857
3011.6890,0.024221
3013.5526,0.024413
3015.4163,0.024328
3017.2800,0.024406
3019.1436,0.024597
3021.0073,0.024634
3022.8710,0.025085
3024.7347,0.025728
3026.5983,0.025749
3028.4620,0.025707
3030.3257,0.026003
3032.1893,0.026364
3034.0530,0.026650
3035.9167,0.026891
3037.7803,0.027014
3039.6440,0.027218
3041.5077,0.027508
3043.3713,0.027783
3045.2350,0.027958
3047.0987,0.028024
3048.9624,0.028388
3050.8260,0.028779
3052.6897,0.028857
3054.5534,0.028804
3056.4170,0.029222
3058.2807,0.029715
3060.1444,0.029575
3062.0080,0.029388
3063.8717,0.029517
3065.7354,0.029798
3067.5990,0.029883
3069.4627,0.029892
3071.3264,0.030142
3073.1900,0.030392
3075.0537,0.030638
3076.9174,0.030842
3078.7811,0.030780
3080.6447,0.030491
3082.5084,0.030282
3084.3721,0.030126
3086.2357,0.029993
3088.0994,0.029988
3089.9631,0.029987
3091.8267,0.030176
3093.6904,0.030415
3095.5541,0.030400
3097.4177,0.030311
3099.2814,0.030392
3101.1451,0.030256
3103.0087,0.030020
3104.8724,0.030396
3106.7361,0.030727
3108.5998,0.030813
3110.4634,0.030926
3112.3271,0.031043
3114.1908,0.031365
3116.0544,0.031347
3117.9181,0.031233
3119.7818,0.031290
3121.6454,0.031068
3123.5091,0.031231
3125.3728,0.032043
3127.2364,0.032257
3129.1001,0.032143
3130.9638,0.032534
3132.8275,0.032804
3134.6911,0.032831
3136.5548,0.033233
3138.4185,0.033640
3140.2821,0.033719
3142.1458,0.033939
3144.0095,0.034303
3145.8731,0.034486
3147.7368,0.034637
3149.6005,0.034998
3151.4641,0.035183
3153.3278,0.035200
3155.1915,0.035628
3157.0551,0.035822
3158.9188,0.036025
3160.7825,0.036847
3162.6462,0.037114
3164.5098,0.036992
3166.3735,0.037208
3168.2372,0.037415
3170.1008,0.037842
3171.9645,0.038294
3173.8282,0.038574
3175.6918,0.038614
3177.5555,0.038598
3179.4192,0.038729
3181.2828,0.039056
3183.1465,0.039589
3185.0102,0.039989
3186.8739,0.040161
3188.7375,0.040618
3190.6012,0.041098
3192.4649,0.040967
3194.3285,0.040628
3196.1922,0.040731
3198.0559,0.041231
3199.9195,0.041424
3201.7832,0.041562
3203.6469,0.041794
3205.5105,0.041725
3207.3742,0.041761
3209.2379,0.041541
3211.1015,0.041458
3212.9652,0.041998
3214.8289,0.042457
3216.6926,0.042748
3218.5562,0.042896
3220.4199,0.042914
3222.2836,0.042990
3224.1472,0.042921
3226.0109,0.042949
3227.8746,0.042910
3229.7382,0.043103
3231.6019,0.043350
3233.4656,0.043461
3235.3292,0.043751
3237.1929,0.044026
3239.0566,0.044224
3240.9202,0.044453
3242.7839,0.044119
3244.6476,0.044067
3246.5113,0.044652
3248.3749,0.044785
3250.2386,0.044751
3252.1023,0.045118
3253.9659,0.045229
3255.8296,0.045209
3257.6933,0.044998
3259.5569,0.045094
3261.4206,0.045566
3263.2843,0.045834
3265.1479,0.045724
3267.0116,0.045762
3268.8753,0.046302
3270.7390,0.046411
3272.6026,0.045983
3274.4663,0.045705
3276.3300,0.045373
3278.1936,0.045426
3280.0573,0.045957
3281.9210,0.046164
3283.7846,0.045708
3285.6483,0.045176
3287.5120,0.045059
3289.3756,0.045082
3291.2393,0.044702
3293.1030,0.044504
3294.9666,0.044624
3296.8303,0.044601
3298.6940,0.044105
3300.5577,0.043509
3302.4213,0.042902
3304.2850,0.042675
3306.1487,0.042726
3308.0123,0.042833
3309.8760,0.042577
3311.7397,0.041938
3313.6033,0.041529
3315.4670,0.041517
3317.3307,0.041066
3319.1943,0.040659
3321.0580,0.040059
3322.9217,0.039843
3324.7854,0.039712
3326.6490,0.039602
3328.5127,0.039834
3330.3764,0.039890
3332.2400,0.039476
3334.1037,0.039258
3335.9674,0.039189
3337.8310,0.039125
3339.6947,0.038581
3341.5584,0.038224
3343.4220,0.038302
3345.2857,0.038635
3347.1494,0.038767
3349.0130,0.038271
3350.8767,0.037355
3352.7404,0.037011
3354.6041,0.037017
3356.4677,0.037388
3358.3314,0.037692
3360.1951,0.037221
3362.0587,0.037086
3363.9224,0.037429
3365.7861,0.037147
3367.6497,0.036567
3369.5134,0.036278
3371.3771,0.036387
3373.2407,0.036253
3375.1044,0.035862
3376.9681,0.035408
3378.8317,0.035466
3380.6954,0.035559
3382.5591,0.035315
3384.4228,0.034945
3386.2864,0.034608
3388.1501,0.034771
3390.0138,0.035143
3391.8774,0.034660
3393.7411,0.033950
3395.6048,0.033832
3397.4684,0.034042
3399.3321,0.033815
3401.1958,0.033777
3403.0594,0.033708
3404.9231,0.033292
3406.7868,0.032906
3408.6505,0.033203
3410.5141,0.032959
3412.3778,0.032681
3414.2415,0.032652
3416.1051,0.032337
3417.9688,0.032211
3419.8325,0.032027
3421.6961,0.031589
3423.5598,0.031887
3425.4235,0.031961
3427.2871,0.031406
3429.1508,0.030597
3431.0145,0.030131
3432.8781,0.030123
3434.7418,0.030291
3436.6055,0.030298
3438.4692,0.030248
3440.3328,0.029658
3442.1965,0.028963
3444.0602,0.029279
3445.9238,0.029579
3447.7875,0.029357
3449.6512,0.029701
3451.5148,0.029182
3453.3785,0.028307
3455.2422,0.028198
3457.1058,0.027967
3458.9695,0.027818
3460.8332,0.027713
3462.6969,0.026976
3464.5605,0.026463
3466.4242,0.026119
3468.2879,0.026314
3470.1515,0.026748
3472.0152,0.026696
3473.8789,0.026151
3475.7425,0.025629
3477.6062,0.024582
3479.4699,0.024074
3481.3335,0.024754
3483.1972,0.025416
3485.0609,0.025191
3486.9245,0.024624
3488.7882,0.023962
3490.6519,0.023493
3492.5156,0.023686
3494.3792,0.023746
3496.2429,0.022649
3498.1066,0.022138
3499.9702,0.022370
3501.8339,0.022182
3503.6976,0.021863
3505.5612,0.021810
3507.4249,0.021171
3509.2886,0.020542
3511.1522,0.020158
3513.0159,0.019973
3514.8796,0.019534
3516.7432,0.019560
3518.6069,0.019659
3520.4706,0.019428
3522.3343,0.018596
3524.1979,0.018175
3526.0616,0.018345
3527.9253,0.018413
3529.7889,0.018512
3531.6526,0.018825
3533.5163,0.017710
3535.3799,0.016908
3537.2436,0.016632
3539.1073,0.016274
3540.9709,0.016449
3542.8346,0.016689
3544.6983,0.016315
3546.5620,0.015717
3548.4256,0.015704
3550.2893,0.015236
3552.1530,0.014206
3554.0166,0.013619
3555.8803,0.013890
3557.7440,0.013667
3559.6076,0.012638
3561.4713,0.012462
3563.3350,0.012265
3565.1986,0.012597
3567.0623,0.013091
3568.9260,0.012972
3570.7896,0.012239
3572.6533,0.011407
3574.5170,0.011342
3576.3807,0.011470
3578.2443,0.010144
3580.1080,0.009269
3581.9717,0.009327
3583.8353,0.009543
3585.6990,0.009553
3587.5627,0.009669
3589.4263,0.009593
3591.2900,0.008808
3593.1537,0.007965
3595.0173,0.007402
3596.8810,0.007345
3598.7447,0.007666
3600.6084,0.007196
3602.4720,0.006163
3604.3357,0.005708
3606.1994,0.005802
3608.0630,0.005259
3609.9267,0.004897
3611.7904,0.004805
3613.6540,0.005299
3615.5177,0.005591
3617.3814,0.004328
3619.2450,0.003120
3621.1087,0.003075
3622.9724,0.003146
3624.8360,0.002732
3626.6997,0.002562
3628.5634,0.002439
3630.4271,0.002688
3632.2907,0.002381
3634.1544,0.001454
3636.0181,0.001078
3637.8817,0.000620
3639.7454,0.000226
3641.6091,0.000328
3643.4727,0.000102
3645.3364,-0.000779
3647.2001,-0.000968
3649.0637,-0.000701
3650.9274,-0.000621
3652.7911,-0.000849
3654.6547,-0.001682
3656.5184,-0.002332
3658.3821,-0.001948
3660.2458,-0.001978
3662.1094,-0.002388
3663.9731,-0.002602
3665.8368,-0.003269
3667.7004,-0.003936
3669.5641,-0.003688
3671.4278,-0.003155
3673.2914,-0.003500
3675.1551,-0.004335
3677.0188,-0.003552
3678.8824,-0.003562
3680.7461,-0.004564
3682.6098,-0.004409
3684.4735,-0.004637
3686.3371,-0.005077
3688.2008,-0.005128
3690.0645,-0.004437
3691.9281,-0.004199
3693.7918,-0.004770
3695.6555,-0.005112
3697.5191,-0.004940
3699.3828,-0.005045
3701.2465,-0.005399
3703.1101,-0.005409
3704.9738,-0.005207
3706.8375,-0.005501
3708.7011,-0.006023
3710.5648,-0.006334
3712.4285,-0.005489
3714.2922,-0.004654
3716.1558,-0.004770
3718.0195,-0.005310
3719.8832,-0.005385
3721.7468,-0.005478
3723.6105,-0.005249
3725.4742,-0.005226
3727.3378,-0.005498
3729.2015,-0.005201
3731.0652,-0.005525
3732.9288,-0.005779
3734.7925,-0.005343
3736.6562,-0.004700
3738.5199,-0.003827
3740.3835,-0.004773
3742.2472,-0.005917
3744.1109,-0.006041
3745.9745,-0.004748
3747.8382,-0.004599
3749.7019,-0.005665
3751.5655,-0.005420
3753.4292,-0.004965
3755.2929,-0.004926
3757.1565,-0.005310
3759.0202,-0.005304
3760.8839,-0.004893
3762.7475,-0.004842
3764.6112,-0.005394
3766.4749,-0.005459
3768.3386,-0.005334
3770.2022,-0.005535
3772.0659,-0.005374
3773.9296,-0.005686
3775.7932,-0.005801
3777.6569,-0.005973
3779.5206,-0.005741
3781.3842,-0.004958
3783.2479,-0.005085
3785.1116,-0.005405
3786.9752,-0.005394
3788.8389,-0.005512
3790.7026,-0.005660
3792.5662,-0.005984
3794.4299,-0.005825
3796.2936,-0.005688
3798.1573,-0.005380
3800.0209,-0.005469
3801.8846,-0.005659
3803.7483,-0.005049
3805.6119,-0.005576
3807.4756,-0.006208
3809.3393,-0.005481
3811.2029,-0.005466
3813.0666,-0.005912
3814.9303,-0.006039
3816.7939,-0.005574
3818.6576,-0.004946
3820.5213,-0.005934
3822.3850,-0.005682
3824.2486,-0.004801
3826.1123,-0.005430
3827.9760,-0.005847
3829.8396,-0.005990
3831.7033,-0.006028
3833.5670,-0.005599
3835.4306,-0.005832
3837.2943,-0.006625
3839.1580,-0.006267
3841.0216,-0.005382
3842.8853,-0.005511
3844.7490,-0.005607
3846.6126,-0.005443
3848.4763,-0.005523
3850.3400,-0.005664
3852.2037,-0.006105
3854.0673,-0.006020
3855.9310,-0.004437
3857.7947,-0.004462
3859.6583,-0.005377
3861.5220,-0.006060
3863.3857,-0.006227
3865.2493,-0.005514
3867.1130,-0.004826
3868.9767,-0.005507
3870.8403,-0.005777
3872.7040,-0.005209
3874.5677,-0.005413
3876.4314,-0.005265
3878.2950,-0.005628
3880.1587,-0.006152
3882.0224,-0.005733
3883.8860,-0.005242
3885.7497,-0.005463
3887.6134,-0.005084
3889.4770,-0.005222
3891.3407,-0.005857
3893.2044,-0.005497
3895.0680,-0.005215
3896.9317,-0.005693
3898.7954,-0.005658
3900.6590,-0.005436
3902.5227,-0.005578
3904.3864,-0.005589
3906.2501,-0.005066
3908.1137,-0.005019
3909.9774,-0.005423
3911.8411,-0.005910
3913.7047,-0.005950
3915.5684,-0.005574
3917.4321,-0.005280
3919.2957,-0.005029
3921.1594,-0.005081
3923.0231,-0.005366
3924.8867,-0.005460
3926.7504,-0.005180
3928.6141,-0.005143
3930.4777,-0.005105
3932.3414,-0.005079
3934.2051,-0.005258
3936.0688,-0.005314
3937.9324,-0.005488
3939.7961,-0.005402
3941.6598,-0.005050
3943.5234,-0.005020
3945.3871,-0.005104
3947.2508,-0.004894
3949.1144,-0.004993
3950.9781,-0.005370
3952.8418,-0.005350
3954.7054,-0.004850
3956.5691,-0.004771
3958.4328,-0.005074
3960.2965,-0.005180
3962.1601,-0.005216
3964.0238,-0.005291
3965.8875,-0.005304
3967.7511,-0.005343
3969.6148,-0.005386
3971.4785,-0.005353
3973.3421,-0.005379
3975.2058,-0.005597
3977.0695,-0.005598
3978.9331,-0.005536
3980.7968,-0.005319
3982.6605,-0.005282
3984.5241,-0.005180
3986.3878,-0.005187
3988.2515,-0.005358
3990.1152,-0.005454
3991.9788,-0.005629
3993.8425,-0.005459
3995.7062,-0.004991
3997.5698,-0.004815
3999.4335,-0.004797
