Wavenumber,Intensity
650.4205,0.085883
652.2841,0.084889
654.1478,0.082646
656.0115,0.080894
657.8751,0.081733
659.7388,0.080841
661.6025,0.078430
663.4661,0.077130
665.3298,0.076129
667.1935,0.077413
669.0571,0.080240
670.9208,0.076126
672.7845,0.074908
674.6481,0.076174
676.5118,0.075805
678.3755,0.075416
680.2392,0.075611
682.1028,0.073052
683.9665,0.071731
685.8302,0.071965
687.6938,0.071075
689.5575,0.070440
691.4212,0.069671
693.2848,0.069433
695.1485,0.069708
697.0122,0.068744
698.8758,0.068766
700.7395,0.068821
702.6032,0.068263
704.4669,0.068136
706.3305,0.067397
708.1942,0.065888
710.0579,0.064253
711.9215,0.062977
713.7852,0.062263
715.6489,0.061676
717.5125,0.061398
719.3762,0.061173
721.2399,0.060543
723.1035,0.059386
724.9672,0.058707
726.8309,0.058281
728.6945,0.057887
730.5582,0.057682
732.4219,0.057445
734.2856,0.056723
736.1492,0.055927
738.0129,0.055679
739.8766,0.055975
741.7402,0.055763
743.6039,0.054984
745.4676,0.054853
747.3312,0.054753
749.1949,0.054183
751.0586,0.053630
752.9222,0.053221
754.7859,0.052328
756.6496,0.051233
758.5132,0.051041
760.3769,0.051304
762.2406,0.051282
764.1043,0.050811
765.9679,0.050566
767.8316,0.050538
769.6953,0.049982
771.5589,0.049128
773.4226,0.048970
775.2863,0.049057
777.1499,0.048317
779.0136,0.047796
780.8773,0.047753
782.7409,0.047419
784.6046,0.047102
786.4683,0.046740
788.3320,0.046026
790.1956,0.045294
792.0593,0.044839
793.9230,0.044444
795.7866,0.044135
797.6503,0.043954
799.5140,0.043939
801.3776,0.043759
803.2413,0.043320
805.1050,0.043041
806.9686,0.042839
808.8323,0.042639
810.6960,0.042260
812.5596,0.041840
814.4233,0.041534
816.2870,0.041050
818.1507,0.040479
820.0143,0.040018
821.8780,0.039654
823.7417,0.039089
825.6053,0.038531
827.4690,0.038525
829.3327,0.038368
831.1963,0.037677
833.0600,0.037109
834.9237,0.036778
836.7873,0.036293
838.6510,0.035764
840.5147,0.035438
842.3784,0.034889
844.2420,0.034403
846.1057,0.034231
847.9694,0.034007
849.8330,0.033833
851.6967,0.033615
853.5604,0.033476
855.4240,0.033534
857.2877,0.033363
859.1514,0.033267
861.0150,0.033596
862.8787,0.033947
864.7424,0.034296
866.6060,0.034538
868.4697,0.034646
870.3334,0.034953
872.1971,0.035212
874.0607,0.035120
875.9244,0.035162
877.7881,0.035216
879.6517,0.035021
881.5154,0.034861
883.3791,0.034740
885.2427,0.034532
887.1064,0.034432
888.9701,0.034479
890.8337,0.034654
892.6974,0.035061
894.5611,0.035374
896.4247,0.035326
898.2884,0.035158
900.1521,0.034946
902.0158,0.034692
903.8794,0.034405
905.7431,0.034282
907.6068,0.034304
909.4704,0.034285
911.3341,0.034452
913.1978,0.034868
915.0614,0.035249
916.9251,0.035565
918.7888,0.035930
920.6524,0.036265
922.5161,0.036531
924.3798,0.036652
926.2435,0.036679
928.1071,0.036716
929.9708,0.036660
931.8345,0.036759
933.6981,0.037048
935.5618,0.037199
937.4255,0.037354
939.2891,0.037637
941.1528,0.038007
943.0165,0.038527
944.8801,0.038936
946.7438,0.039188
948.6075,0.039557
950.4711,0.039964
952.3348,0.040175
954.1985,0.040507
956.0622,0.041110
957.9258,0.041917
959.7895,0.042921
961.6532,0.043975
963.5168,0.045041
965.3805,0.045922
967.2442,0.046498
969.1078,0.046975
970.9715,0.047321
972.8352,0.047555
974.6988,0.047960
976.5625,0.048634
978.4262,0.049395
980.2899,0.050139
982.1535,0.050855
984.0172,0.051582
985.8809,0.052308
987.7445,0.052948
989.6082,0.053509
991.4719,0.054101
993.3355,0.054726
995.1992,0.055244
997.0629,0.055748
998.9265,0.056363
1000.7902,0.057008
1002.6539,0.057652
1004.5175,0.058314
1006.3812,0.059163
1008.2449,0.060111
1010.1086,0.061165
1011.9722,0.062444
1013.8359,0.063797
1015.6996,0.065120
1017.5632,0.066274
1019.4269,0.067194
1021.2906,0.068027
1023.1542,0.068800
1025.0179,0.069496
1026.8816,0.070202
1028.7452,0.070873
1030.6089,0.071226
1032.4726,0.071502
1034.3362,0.071804
1036.1999,0.071848
1038.0636,0.071754
1039.9273,0.071687
1041.7909,0.071578
1043.6546,0.071449
1045.5183,0.071401
1047.3819,0.071356
1049.2456,0.071232
1051.1093,0.071222
1052.9729,0.071187
1054.8366,0.070924
1056.7003,0.070587
1058.5639,0.070219
1060.4276,0.069772
1062.2913,0.069347
1064.1550,0.068997
1066.0186,0.068844
1067.8823,0.068676
1069.7460,0.068350
1071.6096,0.067951
1073.4733,0.067398
1075.3370,0.066613
1077.2006,0.065538
1079.0643,0.064312
1080.9280,0.062909
1082.7916,0.061306
1084.6553,0.059763
1086.5190,0.058343
1088.3826,0.057037
1090.2463,0.055891
1092.1100,0.054966
1093.9737,0.054231
1095.8373,0.053519
1097.7010,0.052822
1099.5647,0.052341
1101.4283,0.051993
1103.2920,0.051692
1105.1557,0.051486
1107.0193,0.051379
1108.8830,0.051303
1110.7467,0.051180
1112.6103,0.051037
1114.4740,0.050776
1116.3377,0.050293
1118.2014,0.049778
1120.0650,0.049317
1121.9287,0.048822
1123.7924,0.048260
1125.6560,0.047721
1127.5197,0.047231
1129.3834,0.046701
1131.2470,0.046008
1133.1107,0.045249
1134.9744,0.044576
1136.8380,0.044026
1138.7017,0.043615
1140.5654,0.043294
1142.4290,0.043087
1144.2927,0.043156
1146.1564,0.043355
1148.0201,0.043597
1149.8837,0.043882
1151.7474,0.044179
1153.6111,0.044393
1155.4747,0.044532
1157.3384,0.044601
1159.2021,0.044557
1161.0657,0.044399
1162.9294,0.044007
1164.7931,0.043448
1166.6567,0.042844
1168.5204,0.042105
1170.3841,0.041231
1172.2477,0.040250
1174.1114,0.039256
1175.9751,0.038394
1177.8388,0.037788
1179.7024,0.037461
1181.5661,0.037380
1183.4298,0.037459
1185.2934,0.037714
1187.1571,0.038157
1189.0208,0.038704
1190.8844,0.039284
1192.7481,0.039982
1194.6118,0.040814
1196.4754,0.041685
1198.3391,0.042586
1200.2028,0.043480
1202.0665,0.044310
1203.9301,0.045060
1205.7938,0.045608
1207.6575,0.045982
1209.5211,0.046242
1211.3848,0.046527
1213.2485,0.046798
1215.1121,0.047083
1216.9758,0.047498
1218.8395,0.048012
1220.7031,0.048523
1222.5668,0.049028
1224.4305,0.049583
1226.2941,0.050107
1228.1578,0.050496
1230.0215,0.050878
1231.8852,0.051228
1233.7488,0.051419
1235.6125,0.051593
1237.4762,0.051675
1239.3398,0.051585
1241.2035,0.051342
1243.0672,0.051026
1244.9308,0.050690
1246.7945,0.050170
1248.6582,0.049580
1250.5218,0.049007
1252.3855,0.048450
1254.2492,0.047994
1256.1129,0.047499
1257.9765,0.046972
1259.8402,0.046594
1261.7039,0.046341
1263.5675,0.046060
1265.4312,0.045727
1267.2949,0.045445
1269.1585,0.045223
1271.0222,0.045001
1272.8859,0.044673
1274.7495,0.044345
1276.6132,0.044197
1278.4769,0.044111
1280.3405,0.044053
1282.2042,0.043860
1284.0679,0.043608
1285.9316,0.043474
1287.7952,0.043529
1289.6589,0.043654
1291.5226,0.043691
1293.3862,0.043875
1295.2499,0.044072
1297.1136,0.044285
1298.9772,0.044670
1300.8409,0.045024
1302.7046,0.045373
1304.5682,0.045722
1306.4319,0.046034
1308.2956,0.046402
1310.1592,0.046707
1312.0229,0.046961
1313.8866,0.047101
1315.7503,0.047037
1317.6139,0.046943
1319.4776,0.046859
1321.3413,0.046528
1323.2049,0.046098
1325.0686,0.045754
1326.9323,0.045474
1328.7959,0.045358
1330.6596,0.045429
1332.5233,0.045393
1334.3869,0.045242
1336.2506,0.045250
1338.1143,0.045665
1339.9780,0.046078
1341.8416,0.045777
1343.7053,0.045315
1345.5690,0.045131
1347.4326,0.044950
1349.2963,0.044878
1351.1600,0.044825
1353.0236,0.044885
1354.8873,0.045132
1356.7510,0.045200
1358.6146,0.045091
1360.4783,0.045552
1362.3420,0.047009
1364.2056,0.048066
1366.0693,0.048358
1367.9330,0.049030
1369.7967,0.049532
1371.6603,0.049782
1373.5240,0.051011
1375.3877,0.052047
1377.2513,0.051969
1379.1150,0.052196
1380.9787,0.052439
1382.8423,0.052303
1384.7060,0.052180
1386.5697,0.052831
1388.4333,0.053284
1390.2970,0.052526
1392.1607,0.051965
1394.0244,0.052406
1395.8880,0.052938
1397.7517,0.053046
1399.6154,0.053242
1401.4790,0.052474
1403.3427,0.051868
1405.2064,0.052026
1407.0700,0.051664
1408.9337,0.051126
1410.7974,0.050898
1412.6610,0.050389
1414.5247,0.049514
1416.3884,0.049235
1418.2520,0.050381
1420.1157,0.051171
1421.9794,0.050365
1423.8431,0.050520
1425.7067,0.050696
1427.5704,0.050559
1429.4341,0.051473
1431.2977,0.052159
1433.1614,0.052026
1435.0251,0.052823
1436.8887,0.055314
1438.7524,0.055607
1440.6161,0.054873
1442.4797,0.054817
1444.3434,0.054582
1446.2071,0.054680
1448.0707,0.055098
1449.9344,0.054501
1451.7981,0.053073
1453.6618,0.051651
1455.5254,0.051601
1457.3891,0.053567
1459.2528,0.052062
1461.1164,0.049323
1462.9801,0.048071
1464.8438,0.048335
1466.7074,0.047372
1468.5711,0.045398
1470.4348,0.044317
1472.2984,0.045142
1474.1621,0.045486
1476.0258,0.044732
1477.8895,0.044053
1479.7531,0.043617
1481.6168,0.043952
1483.4805,0.043787
1485.3441,0.043755
1487.2078,0.045441
1489.0715,0.048725
1490.9351,0.050976
1492.7988,0.050718
1494.6625,0.051380
1496.5261,0.054737
1498.3898,0.057438
1500.2535,0.058109
1502.1171,0.057599
1503.9808,0.057691
1505.8445,0.061990
1507.7082,0.068149
1509.5718,0.067618
1511.4355,0.067318
1513.2992,0.067570
1515.1628,0.068052
1517.0265,0.068680
1518.8902,0.068741
1520.7538,0.069790
1522.6175,0.071063
1524.4812,0.070548
1526.3448,0.070937
1528.2085,0.070819
1530.0722,0.070128
1531.9359,0.070133
1533.7995,0.070698
1535.6632,0.069617
1537.5269,0.068324
1539.3905,0.068977
1541.2542,0.070080
1543.1179,0.069153
1544.9815,0.067917
1546.8452,0.066130
1548.7089,0.064526
1550.5725,0.063139
1552.4362,0.061503
1554.2999,0.059540
1556.1635,0.057745
1558.0272,0.058193
1559.8909,0.059044
1561.7546,0.056056
1563.6182,0.053916
1565.4819,0.052712
1567.3456,0.051813
1569.2092,0.051477
1571.0729,0.050450
1572.9366,0.048813
1574.8002,0.048646
1576.6639,0.049767
1578.5276,0.049115
1580.3912,0.048246
1582.2549,0.048085
1584.1186,0.048165
1585.9822,0.048383
1587.8459,0.049084
1589.7096,0.049918
1591.5733,0.050636
1593.4369,0.051674
1595.3006,0.053110
1597.1643,0.054360
1599.0279,0.055589
1600.8916,0.057110
1602.7553,0.058900
1604.6189,0.060614
1606.4826,0.062281
1608.3463,0.064298
1610.2099,0.066333
1612.0736,0.067644
1613.9373,0.068613
1615.8010,0.070729
1617.6646,0.073175
1619.5283,0.073503
1621.3920,0.073850
1623.2556,0.075343
1625.1193,0.076605
1626.9830,0.076946
1628.8466,0.077192
1630.7103,0.076874
1632.5740,0.076032
1634.4376,0.075806
1636.3013,0.076038
1638.1650,0.075289
1640.0286,0.073772
1641.8923,0.072258
1643.7560,0.071033
1645.6197,0.070174
1647.4833,0.069022
1649.3470,0.067326
1651.2107,0.065740
1653.0743,0.065217
1654.9380,0.063624
1656.8017,0.061206
1658.6653,0.059044
1660.5290,0.057407
1662.3927,0.055605
1664.2563,0.053531
1666.1200,0.051435
1667.9837,0.049479
1669.8474,0.047629
1671.7110,0.045885
1673.5747,0.044079
1675.4384,0.042152
1677.3020,0.040107
1679.1657,0.038001
1681.0294,0.036148
1682.8930,0.034705
1684.7567,0.032638
1686.6204,0.030306
1688.4840,0.028077
1690.3477,0.025823
1692.2114,0.023650
1694.0750,0.021595
1695.9387,0.019314
1697.8024,0.017291
1699.6661,0.015249
1701.5297,0.013879
1703.3934,0.012452
1705.2571,0.011026
1707.1207,0.009821
1708.9844,0.008883
1710.8481,0.007992
1712.7117,0.007070
1714.5754,0.006298
1716.4391,0.006117
1718.3027,0.005580
1720.1664,0.004798
1722.0301,0.004317
1723.8937,0.003923
1725.7574,0.003404
1727.6211,0.002995
1729.4848,0.002738
1731.3484,0.002429
1733.2121,0.002000
1735.0758,0.002112
1736.9394,0.001913
1738.8031,0.001612
1740.6668,0.001345
1742.5304,0.001147
1744.3941,0.000939
1746.2578,0.000464
1748.1214,0.000053
1749.9851,-0.000044
1751.8488,-0.000120
1753.7125,-0.000320
1755.5761,-0.000818
1757.4398,-0.001077
1759.3035,-0.001032
1761.1671,-0.001002
1763.0308,-0.001254
1764.8945,-0.001527
1766.7581,-0.001492
1768.6218,-0.001302
1770.4855,-0.001558
1772.3491,-0.001492
1774.2128,-0.001510
1776.0765,-0.001716
1777.9401,-0.001694
1779.8038,-0.001669
1781.6675,-0.001664
1783.5312,-0.001823
1785.3948,-0.001959
1787.2585,-0.001940
1789.1222,-0.001847
1790.9858,-0.001846
1792.8495,-0.001580
1794.7132,-0.001518
1796.5768,-0.002055
1798.4405,-0.002165
1800.3042,-0.001811
1802.1678,-0.001583
1804.0315,-0.001492
1805.8952,-0.001670
1807.7589,-0.001960
1809.6225,-0.002119
1811.4862,-0.002062
1813.3499,-0.001966
1815.2135,-0.001955
1817.0772,-0.001769
1818.9409,-0.001519
1820.8045,-0.001742
1822.6682,-0.001758
1824.5319,-0.001517
1826.3955,-0.001440
1828.2592,-0.001565
1830.1229,-0.001463
1831.9865,-0.001403
1833.8502,-0.001549
1835.7139,-0.001620
1837.5776,-0.001667
1839.4412,-0.001579
1841.3049,-0.001669
1843.1686,-0.001965
1845.0322,-0.001320
1846.8959,-0.000966
1848.7596,-0.001246
1850.6232,-0.001324
1852.4869,-0.001465
1854.3506,-0.001527
1856.2142,-0.001496
1858.0779,-0.001380
1859.9416,-0.001549
1861.8052,-0.001476
1863.6689,-0.001199
1865.5326,-0.001231
1867.3963,-0.001322
1869.2599,-0.001226
1871.1236,-0.001241
1872.9873,-0.001327
1874.8509,-0.001038
1876.7146,-0.000734
1878.5783,-0.000863
1880.4419,-0.001106
1882.3056,-0.001091
1884.1693,-0.000869
1886.0329,-0.000660
1887.8966,-0.000925
1889.7603,-0.001018
1891.6240,-0.000835
1893.4876,-0.000697
1895.3513,-0.001055
1897.2150,-0.001026
1899.0786,-0.001065
1900.9423,-0.001299
1902.8060,-0.001202
1904.6696,-0.001341
1906.5333,-0.001342
1908.3970,-0.001014
1910.2606,-0.001103
1912.1243,-0.001238
1913.9880,-0.000805
1915.8516,-0.000624
1917.7153,-0.000861
1919.5790,-0.000846
1921.4427,-0.001047
1923.3063,-0.000942
1925.1700,-0.001231
1927.0337,-0.001650
1928.8973,-0.001207
1930.7610,-0.001051
1932.6247,-0.001180
1934.4883,-0.001157
1936.3520,-0.000733
1938.2157,-0.000359
1940.0793,-0.001406
1941.9430,-0.001317
1943.8067,-0.000115
1945.6704,0.000237
1947.5340,-0.000059
1949.3977,0.000467
1951.2614,0.000217
1953.1250,-0.000829
1954.9887,-0.000695
1956.8524,-0.000997
1958.7160,-0.001201
1960.5797,-0.000364
1962.4434,0.000642
1964.3070,0.000621
1966.1707,0.000539
1968.0344,0.000656
1969.8980,0.001026
1971.7617,0.001611
1973.6254,0.000848
1975.4891,0.000150
1977.3527,0.000722
1979.2164,0.002455
1981.0801,0.003764
1982.9437,0.002905
1984.8074,0.000894
1986.6711,0.000414
1988.5347,0.000972
1990.3984,0.001405
1992.2621,0.001307
1994.1257,0.000805
1995.9894,0.000971
1997.8531,0.000139
1999.7167,0.000182
2001.5804,0.001374
2003.4441,0.000789
2005.3078,0.000501
2007.1714,0.001183
2009.0351,0.001095
2010.8988,0.001342
2012.7624,0.001119
2014.6261,0.001554
2016.4898,0.002877
2018.3534,0.002183
2020.2171,0.000673
2022.0808,0.000932
2023.9444,0.001967
2025.8081,0.001727
2027.6718,0.001356
2029.5355,0.002769
2031.3991,0.002918
2033.2628,0.002304
2035.1265,0.002105
2036.9901,0.001794
2038.8538,0.002014
2040.7175,0.002449
2042.5811,0.002558
2044.4448,0.002760
2046.3085,0.004387
2048.1721,0.004670
2050.0358,0.003880
2051.8995,0.003136
2053.7631,0.002311
2055.6268,0.002508
2057.4905,0.002302
2059.3542,0.002328
2061.2178,0.002633
2063.0815,0.002879
2064.9452,0.002465
2066.8088,0.002393
2068.6725,0.002876
2070.5362,0.002383
2072.3998,0.002555
2074.2635,0.002387
2076.1272,0.001943
2077.9908,0.002449
2079.8545,0.002799
2081.7182,0.002319
2083.5819,0.002003
2085.4455,0.002472
2087.3092,0.002665
2089.1729,0.002187
2091.0365,0.001395
2092.9002,0.000681
2094.7639,0.001409
2096.6275,0.002440
2098.4912,0.002388
2100.3549,0.002280
2102.2185,0.001830
2104.0822,0.001345
2105.9459,0.001502
2107.8095,0.001867
2109.6732,0.002296
2111.5369,0.002274
2113.4006,0.002084
2115.2642,0.002408
2117.1279,0.002600
2118.9916,0.002083
2120.8552,0.001441
2122.7189,0.001456
2124.5826,0.001121
2126.4462,0.000889
2128.3099,0.001329
2130.1736,0.001090
2132.0372,0.000728
2133.9009,0.000793
2135.7646,0.001174
2137.6282,0.002011
2139.4919,0.002669
2141.3556,0.002632
2143.2193,0.001462
2145.0829,0.000345
2146.9466,0.000392
2148.8103,0.001042
2150.6739,0.001584
2152.5376,0.002411
2154.4013,0.002185
2156.2649,0.000960
2158.1286,0.001673
2159.9923,0.004593
2161.8559,0.006015
2163.7196,0.005850
2165.5833,0.005616
2167.4470,0.005083
2169.3106,0.003966
2171.1743,0.003437
2173.0380,0.004317
2174.9016,0.004240
2176.7653,0.003108
2178.6290,0.002234
2180.4926,0.002568
2182.3563,0.003336
2184.2200,0.004029
2186.0836,0.004787
2187.9473,0.004673
2189.8110,0.003506
2191.6746,0.002655
2193.5383,0.003892
2195.4020,0.004723
2197.2657,0.003672
2199.1293,0.002923
2200.9930,0.003314
2202.8567,0.003800
2204.7203,0.002994
2206.5840,0.003084
2208.4477,0.003125
2210.3113,0.002383
2212.1750,0.002586
2214.0387,0.002873
2215.9023,0.003171
2217.7660,0.003138
2219.6297,0.002387
2221.4934,0.002527
2223.3570,0.003359
2225.2207,0.003486
2227.0844,0.003010
2228.9480,0.003401
2230.8117,0.003853
2232.6754,0.003106
2234.5390,0.002373
2236.4027,0.002713
2238.2664,0.002931
2240.1300,0.002868
2241.9937,0.002814
2243.8574,0.002351
2245.7210,0.001879
2247.5847,0.002032
2249.4484,0.001983
2251.3121,0.001904
2253.1757,0.002840
2255.0394,0.003254
2256.9031,0.002732
2258.7667,0.002691
2260.6304,0.002757
2262.4941,0.002508
2264.3577,0.002510
2266.2214,0.002621
2268.0851,0.002728
2269.9487,0.002920
2271.8124,0.002892
2273.6761,0.002837
2275.5397,0.002580
2277.4034,0.002570
2279.2671,0.003418
2281.1308,0.003702
2282.9944,0.003134
2284.8581,0.002751
2286.7218,0.002707
2288.5854,0.002660
2290.4491,0.002378
2292.3128,0.002264
2294.1764,0.002354
2296.0401,0.002592
2297.9038,0.002722
2299.7674,0.002462
2301.6311,0.001928
2303.4948,0.001586
2305.3585,0.001907
2307.2221,0.002150
2309.0858,0.002030
2310.9495,0.002042
2312.8131,0.002155
2314.6768,0.002249
2316.5405,0.002679
2318.4041,0.003170
2320.2678,0.003013
2322.1315,0.002765
2323.9951,0.002440
2325.8588,0.001851
2327.7225,0.001462
2329.5861,0.001305
2331.4498,0.001436
2333.3135,0.001915
2335.1772,0.001957
2337.0408,0.002007
2338.9045,0.002610
2340.7682,0.002811
2342.6318,0.002533
2344.4955,0.002178
2346.3592,0.002082
2348.2228,0.002020
2350.0865,0.001391
2351.9502,0.000647
2353.8138,0.000904
2355.6775,0.001680
2357.5412,0.001823
2359.4049,0.001611
2361.2685,0.001992
2363.1322,0.002356
2364.9959,0.002806
2366.8595,0.003337
2368.7232,0.003183
2370.5869,0.003307
2372.4505,0.003465
2374.3142,0.003128
2376.1779,0.002958
2378.0415,0.002875
2379.9052,0.002741
2381.7689,0.002516
2383.6325,0.002290
2385.4962,0.002180
2387.3599,0.002198
2389.2236,0.002173
2391.0872,0.002135
2392.9509,0.002364
2394.8146,0.002461
2396.6782,0.002345
2398.5419,0.002369
2400.4056,0.002458
2402.2692,0.002612
2404.1329,0.002758
2405.9966,0.002633
2407.8602,0.002245
2409.7239,0.002069
2411.5876,0.002548
2413.4512,0.002965
2415.3149,0.002897
2417.1786,0.002916
2419.0423,0.002972
2420.9059,0.002897
2422.7696,0.002920
2424.6333,0.002946
2426.4969,0.003115
2428.3606,0.003244
2430.2243,0.003151
2432.0879,0.003312
2433.9516,0.003562
2435.8153,0.003589
2437.6789,0.003426
2439.5426,0.003452
2441.4063,0.003716
2443.2700,0.003898
2445.1336,0.003840
2446.9973,0.003556
2448.8610,0.003562
2450.7246,0.003869
2452.5883,0.004009
2454.4520,0.004001
2456.3156,0.004035
2458.1793,0.004212
2460.0430,0.004184
2461.9066,0.003888
2463.7703,0.003554
2465.6340,0.003487
2467.4976,0.003973
2469.3613,0.004264
2471.2250,0.004330
2473.0887,0.004392
2474.9523,0.004281
2476.8160,0.004229
2478.6797,0.004132
2480.5433,0.004324
2482.4070,0.004668
2484.2707,0.004424
2486.1343,0.004275
2487.9980,0.004511
2489.8617,0.004595
2491.7253,0.004926
2493.5890,0.005364
2495.4527,0.004885
2497.3164,0.004168
2499.1800,0.004364
2501.0437,0.004812
2502.9074,0.004803
2504.7710,0.004777
2506.6347,0.004818
2508.4984,0.004573
2510.3620,0.004684
2512.2257,0.004894
2514.0894,0.004806
2515.9530,0.004746
2517.8167,0.004768
2519.6804,0.005132
2521.5440,0.005308
2523.4077,0.005003
2525.2714,0.005042
2527.1351,0.005124
2528.9987,0.004711
2530.8624,0.004742
2532.7261,0.005113
2534.5897,0.005181
2536.4534,0.005170
2538.3171,0.005154
2540.1807,0.005201
2542.0444,0.005460
2543.9081,0.005687
2545.7717,0.005620
2547.6354,0.005573
2549.4991,0.005556
2551.3627,0.005466
2553.2264,0.005552
2555.0901,0.005729
2556.9538,0.005715
2558.8174,0.005816
2560.6811,0.006014
2562.5448,0.006136
2564.4084,0.006400
2566.2721,0.006467
2568.1358,0.006283
2569.9994,0.006236
2571.8631,0.006190
2573.7268,0.006149
2575.5904,0.006064
2577.4541,0.005963
2579.3178,0.006178
2581.1815,0.006417
2583.0451,0.006424
2584.9088,0.006648
2586.7725,0.006807
2588.6361,0.006813
2590.4998,0.007103
2592.3635,0.007134
2594.2271,0.006802
2596.0908,0.006735
2597.9545,0.007108
2599.8181,0.007144
2601.6818,0.006864
2603.5455,0.006926
2605.4091,0.007278
2607.2728,0.007354
2609.1365,0.007300
2611.0002,0.007399
2612.8638,0.007566
2614.7275,0.007673
2616.5912,0.007718
2618.4548,0.007707
2620.3185,0.007739
2622.1822,0.007734
2624.0458,0.007866
2625.9095,0.007985
2627.7732,0.008146
2629.6368,0.008182
2631.5005,0.008003
2633.3642,0.008034
2635.2279,0.008222
2637.0915,0.008379
2638.9552,0.008324
2640.8189,0.008234
2642.6825,0.008352
2644.5462,0.008524
2646.4099,0.008629
2648.2735,0.008701
2650.1372,0.008815
2652.0009,0.008850
2653.8645,0.008821
2655.7282,0.008865
2657.5919,0.008843
2659.4555,0.008746
2661.3192,0.008748
2663.1829,0.008681
2665.0466,0.008520
2666.9102,0.008663
2668.7739,0.008819
2670.6376,0.008740
2672.5012,0.008775
2674.3649,0.008965
2676.2286,0.009069
2678.0922,0.009141
2679.9559,0.009243
2681.8196,0.009233
2683.6832,0.009106
2685.5469,0.009029
2687.4106,0.009191
2689.2742,0.009464
2691.1379,0.009523
2693.0016,0.009413
2694.8653,0.009414
2696.7289,0.009637
2698.5926,0.009861
2700.4563,0.009995
2702.3199,0.010069
2704.1836,0.009885
2706.0473,0.009838
2707.9109,0.010174
2709.7746,0.010247
2711.6383,0.010120
2713.5019,0.010233
2715.3656,0.010451
2717.2293,0.010645
2719.0930,0.010898
2720.9566,0.011029
2722.8203,0.011051
2724.6840,0.010969
2726.5476,0.011031
2728.4113,0.011231
2730.2750,0.011321
2732.1386,0.011253
2734.0023,0.011264
2735.8660,0.011381
2737.7296,0.011644
2739.5933,0.011828
2741.4570,0.011995
2743.3206,0.012203
2745.1843,0.012278
2747.0480,0.012326
2748.9117,0.012399
2750.7753,0.012310
2752.6390,0.012407
2754.5027,0.012643
2756.3663,0.012666
2758.2300,0.012670
2760.0937,0.012720
2761.9573,0.012982
2763.8210,0.013191
2765.6847,0.013107
2767.5483,0.013273
2769.4120,0.013549
2771.2757,0.013610
2773.1394,0.013598
2775.0030,0.013568
2776.8667,0.013757
2778.7304,0.013958
2780.5940,0.014019
2782.4577,0.014195
2784.3214,0.014487
2786.1850,0.014780
2788.0487,0.014944
2789.9124,0.014887
2791.7760,0.014777
2793.6397,0.014939
2795.5034,0.015161
2797.3670,0.015323
2799.2307,0.015276
2801.0944,0.015261
2802.9581,0.015395
2804.8217,0.015545
2806.6854,0.015824
2808.5491,0.016066
2810.4127,0.016066
2812.2764,0.016054
2814.1401,0.016271
2816.0037,0.016633
2817.8674,0.016780
2819.7311,0.016807
2821.5947,0.016849
2823.4584,0.017088
2825.3221,0.017342
2827.1857,0.017414
2829.0494,0.017497
2830.9131,0.017652
2832.7768,0.017904
2834.6404,0.018285
2836.5041,0.018598
2838.3678,0.018814
2840.2314,0.019046
2842.0951,0.019038
2843.9588,0.019291
2845.8224,0.019781
2847.6861,0.020211
2849.5498,0.020357
2851.4134,0.020567
2853.2771,0.020931
2855.1408,0.021261
2857.0045,0.021469
2858.8681,0.021730
2860.7318,0.022206
2862.5955,0.022524
2864.4591,0.022595
2866.3228,0.022871
2868.1865,0.023285
2870.0501,0.023586
2871.9138,0.023672
2873.7775,0.023759
2875.6411,0.023899
2877.5048,0.024008
2879.3685,0.023797
2881.2321,0.023557
2883.0958,0.023580
2884.9595,0.023611
2886.8232,0.023635
2888.6868,0.023893
2890.5505,0.023897
2892.4142,0.024087
2894.2778,0.024274
2896.1415,0.023954
2898.0052,0.023973
2899.8688,0.024230
2901.7325,0.024430
2903.5962,0.024619
2905.4598,0.024749
2907.3235,0.024986
2909.1872,0.025291
2911.0509,0.025536
2912.9145,0.025893
2914.7782,0.026204
2916.6419,0.026053
2918.5055,0.026275
2920.3692,0.026668
2922.2329,0.026832
2924.0965,0.027017
2925.9602,0.027174
2927.8239,0.027173
2929.6875,0.027043
2931.5512,0.026854
2933.4149,0.026903
2935.2785,0.027004
2937.1422,0.026780
2939.0059,0.026594
2940.8696,0.026563
2942.7332,0.026397
2944.5969,0.026185
2946.4606,0.026077
2948.3242,0.026018
2950.1879,0.026027
2952.0516,0.026124
2953.9152,0.026300
2955.7789,0.026253
2957.6426,0.025909
2959.5062,0.025612
2961.3699,0.025720
2963.2336,0.025826
2965.0972,0.025678
2966.9609,0.025492
2968.8246,0.025432
2970.6883,0.025187
2972.5519,0.024793
2974.4156,0.024453
2976.2793,0.024162
2978.1429,0.023811
2980.0066,0.023406
2981.8703,0.023165
2983.7339,0.022920
2985.5976,0.022541
2987.4613,0.022400
2989.3249,0.022609
2991.1886,0.022396
2993.0523,0.022169
2994.9160,0.022064
2996.7796,0.021976
2998.6433,0.021948
3000.5070,0.021785
3002.3706,0.021765
3004.2343,0.022007
3006.0980,0.022028
3007.9616,0.022061
3009.8253,0.022451
3011.6890,0.022650
3013.5526,0.022640
3015.4163,0.022605
3017.2800,0.022624
3019.1436,0.022838
3021.0073,0.022928
3022.8710,0.023337
3024.7347,0.023655
3026.5983,0.023724
3028.4620,0.023905
3030.3257,0.024228
3032.1893,0.024464
3034.0530,0.024725
3035.9167,0.024953
3037.7803,0.025123
3039.6440,0.025354
3041.5077,0.025450
3043.3713,0.025481
3045.2350,0.025665
3047.0987,0.025791
3048.9624,0.026203
3050.8260,0.026460
3052.6897,0.026186
3054.5534,0.026339
3056.4170,0.026747
3058.2807,0.026773
3060.1444,0.027004
3062.0080,0.027364
3063.8717,0.027611
3065.7354,0.027696
3067.5990,0.027685
3069.4627,0.027545
3071.3264,0.027644
3073.1900,0.027674
3075.0537,0.027799
3076.9174,0.027890
3078.7811,0.027841
3080.6447,0.027660
3082.5084,0.027543
3084.3721,0.027566
3086.2357,0.027710
3088.0994,0.027696
3089.9631,0.027637
3091.8267,0.027477
3093.6904,0.027741
3095.5541,0.027983
3097.4177,0.027655
3099.2814,0.027417
3101.1451,0.027407
3103.0087,0.027512
3104.8724,0.027857
3106.7361,0.027724
3108.5998,0.027714
3110.4634,0.027985
3112.3271,0.028084
3114.1908,0.028056
3116.0544,0.028331
3117.9181,0.028527
3119.7818,0.028525
3121.6454,0.028529
3123.5091,0.028681
3125.3728,0.028714
3127.2364,0.028881
3129.1001,0.029288
3130.9638,0.029575
3132.8275,0.029548
3134.6911,0.029744
3136.5548,0.030130
3138.4185,0.030317
3140.2821,0.030311
3142.1458,0.030400
3144.0095,0.030561
3145.8731,0.031065
3147.7368,0.031541
3149.6005,0.031584
3151.4641,0.031638
3153.3278,0.032141
3155.1915,0.032454
3157.0551,0.032473
3158.9188,0.032756
3160.7825,0.033020
3162.6462,0.033023
3164.5098,0.033510
3166.3735,0.033950
3168.2372,0.034018
3170.1008,0.033767
3171.9645,0.034067
3173.8282,0.034633
3175.6918,0.034802
3177.5555,0.034977
3179.4192,0.035576
3181.2828,0.035686
3183.1465,0.036000
3185.0102,0.036172
3186.8739,0.036464
3188.7375,0.036708
3190.6012,0.036838
3192.4649,0.036832
3194.3285,0.036741
3196.1922,0.036808
3198.0559,0.037137
3199.9195,0.037299
3201.7832,0.037359
3203.6469,0.037562
3205.5105,0.037817
3207.3742,0.037945
3209.2379,0.037891
3211.1015,0.038026
3212.9652,0.038367
3214.8289,0.038175
3216.6926,0.038079
3218.5562,0.038430
3220.4199,0.038744
3222.2836,0.038901
3224.1472,0.038738
3226.0109,0.038672
3227.8746,0.039434
3229.7382,0.039739
3231.6019,0.039796
3233.4656,0.039822
3235.3292,0.039596
3237.1929,0.039589
3239.0566,0.039712
3240.9202,0.039512
3242.7839,0.039925
3244.6476,0.040613
3246.5113,0.040939
3248.3749,0.040622
3250.2386,0.040680
3252.1023,0.041199
3253.9659,0.041685
3255.8296,0.041495
3257.6933,0.041246
3259.5569,0.041153
3261.4206,0.041728
3263.2843,0.042043
3265.1479,0.042102
3267.0116,0.042301
3268.8753,0.042640
3270.7390,0.042526
3272.6026,0.042306
3274.4663,0.042236
3276.3300,0.042491
3278.1936,0.042394
3280.0573,0.042251
3281.9210,0.042228
3283.7846,0.042334
3285.6483,0.042071
3287.5120,0.041975
3289.3756,0.041992
3291.2393,0.041538
3293.1030,0.040693
3294.9666,0.040922
3296.8303,0.041214
3298.6940,0.040688
3300.5577,0.040408
3302.4213,0.040977
3304.2850,0.040695
3306.1487,0.040215
3308.0123,0.039982
3309.8760,0.039461
3311.7397,0.038924
3313.6033,0.038873
3315.4670,0.038465
3317.3307,0.038159
3319.1943,0.038092
3321.0580,0.038142
3322.9217,0.037962
3324.7854,0.037870
3326.6490,0.037082
3328.5127,0.036442
3330.3764,0.036479
3332.2400,0.036795
3334.1037,0.036412
3335.9674,0.036135
3337.8310,0.035966
3339.6947,0.035759
3341.5584,0.035845
3343.4220,0.035669
3345.2857,0.035453
3347.1494,0.035815
3349.0130,0.035552
3350.8767,0.034542
3352.7404,0.033775
3354.6041,0.034143
3356.4677,0.034135
3358.3314,0.033710
3360.1951,0.033668
3362.0587,0.033631
3363.9224,0.033319
3365.7861,0.033229
3367.6497,0.033020
3369.5134,0.032727
3371.3771,0.032626
3373.2407,0.032637
3375.1044,0.032951
3376.9681,0.032522
3378.8317,0.031487
3380.6954,0.031845
3382.5591,0.032505
3384.4228,0.032647
3386.2864,0.032133
3388.1501,0.031152
3390.0138,0.030570
3391.8774,0.030643
3393.7411,0.030911
3395.6048,0.030732
3397.4684,0.030300
3399.3321,0.029824
3401.1958,0.029620
3403.0594,0.029726
3404.9231,0.029609
3406.7868,0.029759
3408.6505,0.029591
3410.5141,0.029255
3412.3778,0.029525
3414.2415,0.028911
3416.1051,0.028422
3417.9688,0.028464
3419.8325,0.028119
3421.6961,0.027871
3423.5598,0.027440
3425.4235,0.027393
3427.2871,0.027508
3429.1508,0.027698
3431.0145,0.027637
3432.8781,0.026698
3434.7418,0.026096
3436.6055,0.026487
3438.4692,0.026680
3440.3328,0.026469
3442.1965,0.026156
3444.0602,0.025809
3445.9238,0.025651
3447.7875,0.025854
3449.6512,0.025367
3451.5148,0.024674
3453.3785,0.024601
3455.2422,0.024123
3457.1058,0.023557
3458.9695,0.024012
3460.8332,0.024266
3462.6969,0.023767
3464.5605,0.023097
3466.4242,0.023045
3468.2879,0.022615
3470.1515,0.022410
3472.0152,0.022536
3473.8789,0.022213
3475.7425,0.022220
3477.6062,0.021711
3479.4699,0.020994
3481.3335,0.021062
3483.1972,0.021058
3485.0609,0.020852
3486.9245,0.020657
3488.7882,0.020521
3490.6519,0.020041
3492.5156,0.019078
3494.3792,0.018797
3496.2429,0.019214
3498.1066,0.019262
3499.9702,0.018757
3501.8339,0.018531
3503.6976,0.018385
3505.5612,0.018038
3507.4249,0.017402
3509.2886,0.017080
3511.1522,0.018154
3513.0159,0.018038
3514.8796,0.016618
3516.7432,0.015861
3518.6069,0.015625
3520.4706,0.015785
3522.3343,0.016015
3524.1979,0.015667
3526.0616,0.015299
3527.9253,0.015424
3529.7889,0.015420
3531.6526,0.015082
3533.5163,0.014555
3535.3799,0.013843
3537.2436,0.013267
3539.1073,0.013209
3540.9709,0.013456
3542.8346,0.013024
3544.6983,0.012806
3546.5620,0.012643
3548.4256,0.012121
3550.2893,0.011586
3552.1530,0.011188
3554.0166,0.011117
3555.8803,0.010607
3557.7440,0.009551
3559.6076,0.009622
3561.4713,0.010040
3563.3350,0.010087
3565.1986,0.009945
3567.0623,0.009107
3568.9260,0.008461
3570.7896,0.008993
3572.6533,0.008803
3574.5170,0.007608
3576.3807,0.007134
3578.2443,0.007017
3580.1080,0.006637
3581.9717,0.006465
3583.8353,0.006750
3585.6990,0.007030
3587.5627,0.006726
3589.4263,0.006337
3591.2900,0.006015
3593.1537,0.005002
3595.0173,0.004457
3596.8810,0.004151
3598.7447,0.004064
3600.6084,0.004215
3602.4720,0.004240
3604.3357,0.003606
3606.1994,0.003121
3608.0630,0.002794
3609.9267,0.002611
3611.7904,0.002507
3613.6540,0.001927
3615.5177,0.001760
3617.3814,0.001957
3619.2450,0.001664
3621.1087,0.001068
3622.9724,0.000358
3624.8360,0.000124
3626.6997,0.000232
3628.5634,0.000063
3630.4271,-0.000102
3632.2907,-0.000480
3634.1544,-0.000704
3636.0181,-0.000438
3637.8817,-0.001038
3639.7454,-0.001598
3641.6091,-0.001672
3643.4727,-0.002113
3645.3364,-0.002861
3647.2001,-0.003484
3649.0637,-0.003383
3650.9274,-0.002481
3652.7911,-0.002281
3654.6547,-0.002918
3656.5184,-0.003221
3658.3821,-0.003358
3660.2458,-0.003718
3662.1094,-0.004055
3663.9731,-0.004305
3665.8368,-0.004699
3667.7004,-0.005273
3669.5641,-0.005194
3671.4278,-0.004361
3673.2914,-0.005038
3675.1551,-0.006098
3677.0188,-0.005568
3678.8824,-0.005434
3680.7461,-0.005905
3682.6098,-0.005706
3684.4735,-0.005437
3686.3371,-0.005551
3688.2008,-0.006237
3690.0645,-0.006320
3691.9281,-0.005598
3693.7918,-0.005513
3695.6555,-0.005904
3697.5191,-0.006181
3699.3828,-0.006321
3701.2465,-0.006478
3703.1101,-0.006289
3704.9738,-0.006219
3706.8375,-0.006415
3708.7011,-0.006765
3710.5648,-0.006882
3712.4285,-0.006383
3714.2922,-0.006101
3716.1558,-0.006455
3718.0195,-0.006597
3719.8832,-0.006635
3721.7468,-0.006374
3723.6105,-0.005959
3725.4742,-0.006015
3727.3378,-0.006438
3729.2015,-0.006559
3731.0652,-0.006427
3732.9288,-0.006343
3734.7925,-0.006589
3736.6562,-0.006828
3738.5199,-0.006569
3740.3835,-0.006259
3742.2472,-0.006165
3744.1109,-0.006715
3745.9745,-0.006619
3747.8382,-0.006430
3749.7019,-0.006958
3751.5655,-0.006635
3753.4292,-0.006090
3755.2929,-0.006162
3757.1565,-0.006515
3759.0202,-0.006328
3760.8839,-0.006261
3762.7475,-0.006257
3764.6112,-0.006566
3766.4749,-0.006863
3768.3386,-0.006471
3770.2022,-0.006018
3772.0659,-0.005726
3773.9296,-0.005767
3775.7932,-0.006270
3777.6569,-0.006714
3779.5206,-0.006668
3781.3842,-0.006348
3783.2479,-0.006384
3785.1116,-0.006395
3786.9752,-0.006247
3788.8389,-0.006299
3790.7026,-0.006468
3792.5662,-0.006496
3794.4299,-0.006581
3796.2936,-0.006580
3798.1573,-0.006348
3800.0209,-0.006117
3801.8846,-0.006423
3803.7483,-0.006592
3805.6119,-0.006804
3807.4756,-0.006899
3809.3393,-0.006194
3811.2029,-0.005972
3813.0666,-0.006542
3814.9303,-0.006774
3816.7939,-0.006468
3818.6576,-0.006120
3820.5213,-0.006600
3822.3850,-0.006776
3824.2486,-0.006266
3826.1123,-0.006287
3827.9760,-0.006497
3829.8396,-0.006518
3831.7033,-0.006645
3833.5670,-0.006410
3835.4306,-0.006280
3837.2943,-0.006710
3839.1580,-0.006748
3841.0216,-0.006348
3842.8853,-0.006225
3844.7490,-0.006163
3846.6126,-0.005918
3848.4763,-0.006135
3850.3400,-0.006651
3852.2037,-0.006575
3854.0673,-0.006032
3855.9310,-0.005725
3857.7947,-0.006269
3859.6583,-0.006806
3861.5220,-0.006888
3863.3857,-0.006585
3865.2493,-0.006406
3867.1130,-0.006321
3868.9767,-0.006580
3870.8403,-0.006862
3872.7040,-0.006588
3874.5677,-0.006301
3876.4314,-0.005936
3878.2950,-0.006087
3880.1587,-0.006387
3882.0224,-0.006152
3883.8860,-0.005982
3885.7497,-0.006119
3887.6134,-0.005888
3889.4770,-0.005909
3891.3407,-0.006488
3893.2044,-0.006109
3895.0680,-0.005609
3896.9317,-0.005771
3898.7954,-0.005834
3900.6590,-0.005815
3902.5227,-0.006023
3904.3864,-0.006186
3906.2501,-0.005859
3908.1137,-0.005624
3909.9774,-0.005788
3911.8411,-0.005835
3913.7047,-0.005860
3915.5684,-0.005875
3917.4321,-0.005838
3919.2957,-0.006367
3921.1594,-0.006975
3923.0231,-0.006627
3924.8867,-0.005991
3926.7504,-0.005596
3928.6141,-0.005646
3930.4777,-0.006085
3932.3414,-0.006116
3934.2051,-0.005700
3936.0688,-0.005675
3937.9324,-0.005894
3939.7961,-0.005924
3941.6598,-0.006085
3943.5234,-0.006129
3945.3871,-0.005753
3947.2508,-0.005964
3949.1144,-0.006322
3950.9781,-0.006141
3952.8418,-0.005771
3954.7054,-0.005768
3956.5691,-0.006051
3958.4328,-0.006283
3960.2965,-0.006225
3962.1601,-0.005834
3964.0238,-0.005497
3965.8875,-0.005585
3967.7511,-0.005725
3969.6148,-0.005800
3971.4785,-0.005872
3973.3421,-0.005953
3975.2058,-0.006082
3977.0695,-0.005877
3978.9331,-0.005853
3980.7968,-0.005991
3982.6605,-0.005870
3984.5241,-0.005998
3986.3878,-0.006023
3988.2515,-0.005822
3990.1152,-0.005642
3991.9788,-0.005574
3993.8425,-0.005886
3995.7062,-0.005951
3997.5698,-0.005629
3999.4335,-0.005694
