Wavenumber,Intensity
650.4205,0.154419
652.2841,0.155742
654.1478,0.160789
656.0115,0.160110
657.8751,0.156872
659.7388,0.154476
661.6025,0.151700
663.4661,0.148303
665.3298,0.148192
667.1935,0.149704
669.0571,0.150318
670.9208,0.148491
672.7845,0.148605
674.6481,0.148243
676.5118,0.145824
678.3755,0.143337
680.2392,0.143964
682.1028,0.144621
683.9665,0.143435
685.8302,0.141108
687.6938,0.139213
689.5575,0.137405
691.4212,0.136745
693.2848,0.137771
695.1485,0.138247
697.0122,0.137247
698.8758,0.136192
700.7395,0.135695
702.6032,0.135997
704.4669,0.134910
706.3305,0.132203
708.1942,0.129809
710.0579,0.129024
711.9215,0.127739
713.7852,0.125672
715.6489,0.125010
717.5125,0.125202
719.3762,0.124672
721.2399,0.123649
723.1035,0.121662
724.9672,0.119642
726.8309,0.118860
728.6945,0.119078
730.5582,0.118480
732.4219,0.116776
734.2856,0.116011
736.1492,0.116456
738.0129,0.116692
739.8766,0.116602
741.7402,0.116190
743.6039,0.115651
745.4676,0.114972
747.3312,0.114199
749.1949,0.113153
751.0586,0.112483
752.9222,0.111864
754.7859,0.110825
756.6496,0.110058
758.5132,0.109705
760.3769,0.109157
762.2406,0.108491
764.1043,0.107772
765.9679,0.107158
767.8316,0.106642
769.6953,0.105809
771.5589,0.104778
773.4226,0.103982
775.2863,0.103278
777.1499,0.102577
779.0136,0.102018
780.8773,0.101472
782.7409,0.100674
784.6046,0.099743
786.4683,0.098564
788.3320,0.097715
790.1956,0.097286
792.0593,0.096533
793.9230,0.095744
795.7866,0.095281
797.6503,0.094954
799.5140,0.094685
801.3776,0.094498
803.2413,0.094289
805.1050,0.093722
806.9686,0.093222
808.8323,0.093088
810.6960,0.092926
812.5596,0.092652
814.4233,0.092022
816.2870,0.091186
818.1507,0.090636
820.0143,0.090224
821.8780,0.089631
823.7417,0.088845
825.6053,0.088236
827.4690,0.087770
829.3327,0.087234
831.1963,0.086849
833.0600,0.086633
834.9237,0.086154
836.7873,0.085711
838.6510,0.085618
840.5147,0.085389
842.3784,0.084949
844.2420,0.084282
846.1057,0.083941
847.9694,0.084253
849.8330,0.084358
851.6967,0.083940
853.5604,0.083671
855.4240,0.083867
857.2877,0.084259
859.1514,0.084340
861.0150,0.084275
862.8787,0.084564
864.7424,0.084975
866.6060,0.085385
868.4697,0.085762
870.3334,0.085861
872.1971,0.086013
874.0607,0.086318
875.9244,0.086270
877.7881,0.085733
879.6517,0.085089
881.5154,0.084592
883.3791,0.083950
885.2427,0.083071
887.1064,0.082451
888.9701,0.082291
890.8337,0.082168
892.6974,0.082016
894.5611,0.082050
896.4247,0.081866
898.2884,0.081508
900.1521,0.081284
902.0158,0.081197
903.8794,0.081343
905.7431,0.081585
907.6068,0.081844
909.4704,0.082319
911.3341,0.083017
913.1978,0.083846
915.0614,0.084631
916.9251,0.085556
918.7888,0.086529
920.6524,0.087334
922.5161,0.087878
924.3798,0.088186
926.2435,0.088231
928.1071,0.088105
929.9708,0.088102
931.8345,0.088170
933.6981,0.088164
935.5618,0.088251
937.4255,0.088346
939.2891,0.088470
941.1528,0.088736
943.0165,0.088943
944.8801,0.088849
946.7438,0.088650
948.6075,0.088676
950.4711,0.088763
952.3348,0.088700
954.1985,0.088724
956.0622,0.089053
957.9258,0.089905
959.7895,0.091140
961.6532,0.092529
963.5168,0.094072
965.3805,0.095444
967.2442,0.096340
969.1078,0.097002
970.9715,0.097405
972.8352,0.097737
974.6988,0.098401
976.5625,0.099236
978.4262,0.099996
980.2899,0.100757
982.1535,0.101499
984.0172,0.102152
985.8809,0.102823
987.7445,0.103505
989.6082,0.104087
991.4719,0.104972
993.3355,0.106202
995.1992,0.107501
997.0629,0.108721
998.9265,0.110011
1000.7902,0.111455
1002.6539,0.112951
1004.5175,0.114390
1006.3812,0.116067
1008.2449,0.118207
1010.1086,0.120703
1011.9722,0.123383
1013.8359,0.126131
1015.6996,0.128785
1017.5632,0.131340
1019.4269,0.133769
1021.2906,0.135789
1023.1542,0.137338
1025.0179,0.138703
1026.8816,0.139978
1028.7452,0.141244
1030.6089,0.142366
1032.4726,0.143273
1034.3362,0.144019
1036.1999,0.144524
1038.0636,0.144835
1039.9273,0.145075
1041.7909,0.145153
1043.6546,0.145035
1045.5183,0.144831
1047.3819,0.144632
1049.2456,0.144370
1051.1093,0.144206
1052.9729,0.144121
1054.8366,0.143946
1056.7003,0.143847
1058.5639,0.143826
1060.4276,0.143634
1062.2913,0.143457
1064.1550,0.143396
1066.0186,0.143355
1067.8823,0.143192
1069.7460,0.142816
1071.6096,0.142098
1073.4733,0.140950
1075.3370,0.139326
1077.2006,0.137238
1079.0643,0.134673
1080.9280,0.131792
1082.7916,0.128754
1084.6553,0.125661
1086.5190,0.122774
1088.3826,0.120282
1090.2463,0.118086
1092.1100,0.116298
1093.9737,0.114845
1095.8373,0.113569
1097.7010,0.112354
1099.5647,0.111380
1101.4283,0.110698
1103.2920,0.110150
1105.1557,0.109614
1107.0193,0.109382
1108.8830,0.109382
1110.7467,0.109338
1112.6103,0.109201
1114.4740,0.108868
1116.3377,0.108385
1118.2014,0.107876
1120.0650,0.107255
1121.9287,0.106659
1123.7924,0.106131
1125.6560,0.105583
1127.5197,0.104892
1129.3834,0.104085
1131.2470,0.103188
1133.1107,0.102134
1134.9744,0.100986
1136.8380,0.099756
1138.7017,0.098567
1140.5654,0.097472
1142.4290,0.096684
1144.2927,0.096232
1146.1564,0.095937
1148.0201,0.095835
1149.8837,0.095813
1151.7474,0.095853
1153.6111,0.095909
1155.4747,0.095775
1157.3384,0.095408
1159.2021,0.094895
1161.0657,0.094220
1162.9294,0.093352
1164.7931,0.092259
1166.6567,0.091103
1168.5204,0.089816
1170.3841,0.088314
1172.2477,0.086586
1174.1114,0.084767
1175.9751,0.083015
1177.8388,0.081583
1179.7024,0.080689
1181.5661,0.080316
1183.4298,0.080367
1185.2934,0.080669
1187.1571,0.081077
1189.0208,0.081622
1190.8844,0.082340
1192.7481,0.083123
1194.6118,0.083965
1196.4754,0.084949
1198.3391,0.086119
1200.2028,0.087374
1202.0665,0.088587
1203.9301,0.089623
1205.7938,0.090471
1207.6575,0.091119
1209.5211,0.091606
1211.3848,0.092094
1213.2485,0.092749
1215.1121,0.093672
1216.9758,0.094738
1218.8395,0.095933
1220.7031,0.097179
1222.5668,0.098595
1224.4305,0.100171
1226.2941,0.101598
1228.1578,0.102782
1230.0215,0.103899
1231.8852,0.104810
1233.7488,0.105468
1235.6125,0.105990
1237.4762,0.106252
1239.3398,0.106258
1241.2035,0.106070
1243.0672,0.105621
1244.9308,0.105000
1246.7945,0.104207
1248.6582,0.103269
1250.5218,0.102288
1252.3855,0.101436
1254.2492,0.100656
1256.1129,0.099897
1257.9765,0.099204
1259.8402,0.098627
1261.7039,0.098159
1263.5675,0.097848
1265.4312,0.097621
1267.2949,0.097361
1269.1585,0.097098
1271.0222,0.096811
1272.8859,0.096590
1274.7495,0.096318
1276.6132,0.095972
1278.4769,0.095776
1280.3405,0.095602
1282.2042,0.095370
1284.0679,0.095147
1285.9316,0.094986
1287.7952,0.094954
1289.6589,0.094944
1291.5226,0.094971
1293.3862,0.095056
1295.2499,0.095361
1297.1136,0.095871
1298.9772,0.096286
1300.8409,0.096753
1302.7046,0.097221
1304.5682,0.097735
1306.4319,0.098322
1308.2956,0.098939
1310.1592,0.099477
1312.0229,0.099945
1313.8866,0.100309
1315.7503,0.100277
1317.6139,0.100347
1319.4776,0.100423
1321.3413,0.100138
1323.2049,0.099869
1325.0686,0.099726
1326.9323,0.099627
1328.7959,0.099728
1330.6596,0.099984
1332.5233,0.100175
1334.3869,0.100251
1336.2506,0.100566
1338.1143,0.101519
1339.9780,0.102478
1341.8416,0.102289
1343.7053,0.101736
1345.5690,0.101619
1347.4326,0.101602
1349.2963,0.101680
1351.1600,0.101726
1353.0236,0.101936
1354.8873,0.102346
1356.7510,0.102599
1358.6146,0.103046
1360.4783,0.104453
1362.3420,0.107307
1364.2056,0.109521
1366.0693,0.110447
1367.9330,0.112147
1369.7967,0.113761
1371.6603,0.115000
1373.5240,0.117583
1375.3877,0.119915
1377.2513,0.120786
1379.1150,0.121927
1380.9787,0.122991
1382.8423,0.123608
1384.7060,0.124486
1386.5697,0.126432
1388.4333,0.128176
1390.2970,0.127816
1392.1607,0.127846
1394.0244,0.129430
1395.8880,0.130943
1397.7517,0.131365
1399.6154,0.131958
1401.4790,0.131186
1403.3427,0.130364
1405.2064,0.130123
1407.0700,0.128656
1408.9337,0.126937
1410.7974,0.125483
1412.6610,0.123594
1414.5247,0.121297
1416.3884,0.120035
1418.2520,0.120849
1420.1157,0.120837
1421.9794,0.118918
1423.8431,0.118527
1425.7067,0.118315
1427.5704,0.118131
1429.4341,0.119674
1431.2977,0.120681
1433.1614,0.120504
1435.0251,0.122225
1436.8887,0.126099
1438.7524,0.126483
1440.6161,0.125450
1442.4797,0.125533
1444.3434,0.125170
1446.2071,0.125170
1448.0707,0.125533
1449.9344,0.124438
1451.7981,0.122010
1453.6618,0.119684
1455.5254,0.119197
1457.3891,0.121131
1459.2528,0.117729
1461.1164,0.113469
1462.9801,0.111654
1464.8438,0.111716
1466.7074,0.109514
1468.5711,0.106110
1470.4348,0.104428
1472.2984,0.104785
1474.1621,0.104063
1476.0258,0.102134
1477.8895,0.100649
1479.7531,0.099885
1481.6168,0.100187
1483.4805,0.100041
1485.3441,0.100467
1487.2078,0.103465
1489.0715,0.108587
1490.9351,0.112053
1492.7988,0.112005
1494.6625,0.113847
1496.5261,0.120388
1498.3898,0.125470
1500.2535,0.126995
1502.1171,0.127201
1503.9808,0.128775
1505.8445,0.137451
1507.7082,0.150073
1509.5718,0.150476
1511.4355,0.151095
1513.2992,0.152875
1515.1628,0.154774
1517.0265,0.156946
1518.8902,0.157473
1520.7538,0.158978
1522.6175,0.162225
1524.4812,0.162314
1526.3448,0.163727
1528.2085,0.164273
1530.0722,0.163836
1531.9359,0.164420
1533.7995,0.165959
1535.6632,0.164312
1537.5269,0.162211
1539.3905,0.163855
1541.2542,0.165723
1543.1179,0.163832
1544.9815,0.161825
1546.8452,0.158886
1548.7089,0.155927
1550.5725,0.153213
1552.4362,0.149649
1554.2999,0.145829
1556.1635,0.142983
1558.0272,0.142052
1559.8909,0.141006
1561.7546,0.136215
1563.6182,0.132181
1565.4819,0.128926
1567.3456,0.126730
1569.2092,0.125460
1571.0729,0.123013
1572.9366,0.119931
1574.8002,0.119019
1576.6639,0.119523
1578.5276,0.117801
1580.3912,0.116153
1582.2549,0.115627
1584.1186,0.115631
1585.9822,0.116086
1587.8459,0.116521
1589.7096,0.117329
1591.5733,0.118506
1593.4369,0.120174
1595.3006,0.122135
1597.1643,0.124071
1599.0279,0.126241
1600.8916,0.128825
1602.7553,0.131825
1604.6189,0.135028
1606.4826,0.138386
1608.3463,0.142558
1610.2099,0.146675
1612.0736,0.149687
1613.9373,0.152557
1615.8010,0.157470
1617.6646,0.162952
1619.5283,0.164381
1621.3920,0.166193
1623.2556,0.170196
1625.1193,0.172912
1626.9830,0.174142
1628.8466,0.175748
1630.7103,0.175813
1632.5740,0.174830
1634.4376,0.174458
1636.3013,0.174650
1638.1650,0.172174
1640.0286,0.168440
1641.8923,0.165208
1643.7560,0.162061
1645.6197,0.159176
1647.4833,0.155902
1649.3470,0.152544
1651.2107,0.149068
1653.0743,0.146278
1654.9380,0.142687
1656.8017,0.138326
1658.6653,0.133963
1660.5290,0.130123
1662.3927,0.126002
1664.2563,0.121466
1666.1200,0.117171
1667.9837,0.113059
1669.8474,0.108618
1671.7110,0.104373
1673.5747,0.100403
1675.4384,0.096131
1677.3020,0.091727
1679.1657,0.087741
1681.0294,0.083660
1682.8930,0.079625
1684.7567,0.074136
1686.6204,0.069655
1688.4840,0.066087
1690.3477,0.061588
1692.2114,0.057126
1694.0750,0.053266
1695.9387,0.048216
1697.8024,0.043820
1699.6661,0.039978
1701.5297,0.035640
1703.3934,0.033514
1705.2571,0.031966
1707.1207,0.029493
1708.9844,0.027843
1710.8481,0.026748
1712.7117,0.025730
1714.5754,0.024682
1716.4391,0.023716
1718.3027,0.022059
1720.1664,0.020876
1722.0301,0.020034
1723.8937,0.019227
1725.7574,0.018449
1727.6211,0.017883
1729.4848,0.017190
1731.3484,0.016701
1733.2121,0.015928
1735.0758,0.014812
1736.9394,0.014075
1738.8031,0.013652
1740.6668,0.012729
1742.5304,0.011988
1744.3941,0.011406
1746.2578,0.011102
1748.1214,0.010687
1749.9851,0.010059
1751.8488,0.009196
1753.7125,0.008841
1755.5761,0.008680
1757.4398,0.008408
1759.3035,0.008121
1761.1671,0.007844
1763.0308,0.007413
1764.8945,0.007412
1766.7581,0.007372
1768.6218,0.007439
1770.4855,0.007531
1772.3491,0.007282
1774.2128,0.006807
1776.0765,0.006650
1777.9401,0.006766
1779.8038,0.006911
1781.6675,0.006700
1783.5312,0.006729
1785.3948,0.006536
1787.2585,0.006237
1789.1222,0.006424
1790.9858,0.006616
1792.8495,0.006262
1794.7132,0.005948
1796.5768,0.006059
1798.4405,0.006229
1800.3042,0.006265
1802.1678,0.006247
1804.0315,0.006095
1805.8952,0.006109
1807.7589,0.006151
1809.6225,0.006110
1811.4862,0.006041
1813.3499,0.005841
1815.2135,0.005788
1817.0772,0.005810
1818.9409,0.005928
1820.8045,0.006073
1822.6682,0.006124
1824.5319,0.006338
1826.3955,0.006326
1828.2592,0.006151
1830.1229,0.006202
1831.9865,0.006121
1833.8502,0.006227
1835.7139,0.006130
1837.5776,0.005924
1839.4412,0.006110
1841.3049,0.006548
1843.1686,0.006790
1845.0322,0.006299
1846.8959,0.005970
1848.7596,0.006047
1850.6232,0.006072
1852.4869,0.005997
1854.3506,0.006110
1856.2142,0.006352
1858.0779,0.006310
1859.9416,0.006085
1861.8052,0.006283
1863.6689,0.006396
1865.5326,0.006254
1867.3963,0.006350
1869.2599,0.006308
1871.1236,0.006347
1872.9873,0.006657
1874.8509,0.006742
1876.7146,0.006578
1878.5783,0.006763
1880.4419,0.006635
1882.3056,0.006636
1884.1693,0.006873
1886.0329,0.006916
1887.8966,0.007261
1889.7603,0.007337
1891.6240,0.007105
1893.4876,0.007191
1895.3513,0.007193
1897.2150,0.006878
1899.0786,0.006816
1900.9423,0.006899
1902.8060,0.006944
1904.6696,0.006679
1906.5333,0.006375
1908.3970,0.006698
1910.2606,0.006965
1912.1243,0.006784
1913.9880,0.006858
1915.8516,0.006763
1917.7153,0.006487
1919.5790,0.006118
1921.4427,0.006879
1923.3063,0.007136
1925.1700,0.006556
1927.0337,0.006872
1928.8973,0.007002
1930.7610,0.007410
1932.6247,0.007485
1934.4883,0.006580
1936.3520,0.006686
1938.2157,0.006840
1940.0793,0.006817
1941.9430,0.006982
1943.8067,0.006759
1945.6704,0.006300
1947.5340,0.006344
1949.3977,0.007214
1951.2614,0.007590
1953.1250,0.007259
1954.9887,0.007299
1956.8524,0.006873
1958.7160,0.006211
1960.5797,0.005370
1962.4434,0.005926
1964.3070,0.007270
1966.1707,0.007818
1968.0344,0.007646
1969.8980,0.007573
1971.7617,0.008197
1973.6254,0.007971
1975.4891,0.007687
1977.3527,0.008670
1979.2164,0.010038
1981.0801,0.010657
1982.9437,0.009368
1984.8074,0.008966
1986.6711,0.009733
1988.5347,0.009599
1990.3984,0.009756
1992.2621,0.009661
1994.1257,0.008869
1995.9894,0.008352
1997.8531,0.007781
1999.7167,0.008009
2001.5804,0.009175
2003.4441,0.009455
2005.3078,0.008677
2007.1714,0.009306
2009.0351,0.010569
2010.8988,0.010477
2012.7624,0.009890
2014.6261,0.010515
2016.4898,0.010608
2018.3534,0.009118
2020.2171,0.007947
2022.0808,0.008187
2023.9444,0.009423
2025.8081,0.010870
2027.6718,0.011883
2029.5355,0.012613
2031.3991,0.013136
2033.2628,0.013543
2035.1265,0.014126
2036.9901,0.015277
2038.8538,0.015818
2040.7175,0.015738
2042.5811,0.015932
2044.4448,0.017764
2046.3085,0.019302
2048.1721,0.019363
2050.0358,0.019222
2051.8995,0.018419
2053.7631,0.018060
2055.6268,0.018359
2057.4905,0.018652
2059.3542,0.019177
2061.2178,0.019435
2063.0815,0.019145
2064.9452,0.018160
2066.8088,0.018111
2068.6725,0.017889
2070.5362,0.017196
2072.3998,0.016455
2074.2635,0.015329
2076.1272,0.014524
2077.9908,0.014155
2079.8545,0.013987
2081.7182,0.013571
2083.5819,0.012681
2085.4455,0.011868
2087.3092,0.011874
2089.1729,0.011736
2091.0365,0.011044
2092.9002,0.010682
2094.7639,0.010841
2096.6275,0.011319
2098.4912,0.011374
2100.3549,0.011482
2102.2185,0.011630
2104.0822,0.011258
2105.9459,0.011224
2107.8095,0.011141
2109.6732,0.011011
2111.5369,0.011028
2113.4006,0.011151
2115.2642,0.011158
2117.1279,0.011211
2118.9916,0.011238
2120.8552,0.011042
2122.7189,0.010439
2124.5826,0.009751
2126.4462,0.009898
2128.3099,0.009494
2130.1736,0.008761
2132.0372,0.009084
2133.9009,0.009924
2135.7646,0.009776
2137.6282,0.009336
2139.4919,0.009668
2141.3556,0.010539
2143.2193,0.010986
2145.0829,0.010287
2146.9466,0.008931
2148.8103,0.009054
2150.6739,0.009652
2152.5376,0.010085
2154.4013,0.010513
2156.2649,0.011252
2158.1286,0.011911
2159.9923,0.012908
2161.8559,0.013418
2163.7196,0.013164
2165.5833,0.012851
2167.4470,0.012022
2169.3106,0.011929
2171.1743,0.012326
2173.0380,0.012172
2174.9016,0.011279
2176.7653,0.011123
2178.6290,0.012220
2180.4926,0.012269
2182.3563,0.012109
2184.2200,0.012582
2186.0836,0.012358
2187.9473,0.011900
2189.8110,0.012539
2191.6746,0.012793
2193.5383,0.011895
2195.4020,0.012196
2197.2657,0.012868
2199.1293,0.012686
2200.9930,0.013433
2202.8567,0.012784
2204.7203,0.011005
2206.5840,0.011550
2208.4477,0.012974
2210.3113,0.013517
2212.1750,0.013621
2214.0387,0.013389
2215.9023,0.012558
2217.7660,0.011549
2219.6297,0.011677
2221.4934,0.012510
2223.3570,0.012950
2225.2207,0.012889
2227.0844,0.013076
2228.9480,0.013385
2230.8117,0.013148
2232.6754,0.012139
2234.5390,0.011703
2236.4027,0.012104
2238.2664,0.012707
2240.1300,0.013053
2241.9937,0.012812
2243.8574,0.012577
2245.7210,0.012971
2247.5847,0.013547
2249.4484,0.013604
2251.3121,0.012937
2253.1757,0.012699
2255.0394,0.013104
2256.9031,0.013673
2258.7667,0.013526
2260.6304,0.012893
2262.4941,0.012698
2264.3577,0.013091
2266.2214,0.013318
2268.0851,0.013583
2269.9487,0.013774
2271.8124,0.013728
2273.6761,0.013753
2275.5397,0.013899
2277.4034,0.013864
2279.2671,0.013998
2281.1308,0.014209
2282.9944,0.014078
2284.8581,0.013963
2286.7218,0.014174
2288.5854,0.014395
2290.4491,0.014585
2292.3128,0.014451
2294.1764,0.014047
2296.0401,0.013719
2297.9038,0.013711
2299.7674,0.014104
2301.6311,0.014119
2303.4948,0.013659
2305.3585,0.013624
2307.2221,0.013872
2309.0858,0.013883
2310.9495,0.013719
2312.8131,0.013688
2314.6768,0.013982
2316.5405,0.014672
2318.4041,0.015145
2320.2678,0.015566
2322.1315,0.015947
2323.9951,0.015920
2325.8588,0.015422
2327.7225,0.014852
2329.5861,0.014578
2331.4498,0.014175
2333.3135,0.013678
2335.1772,0.013786
2337.0408,0.014439
2338.9045,0.015379
2340.7682,0.015962
2342.6318,0.016026
2344.4955,0.015503
2346.3592,0.014374
2348.2228,0.013379
2350.0865,0.013153
2351.9502,0.013394
2353.8138,0.014506
2355.6775,0.015360
2357.5412,0.015597
2359.4049,0.016444
2361.2685,0.016813
2363.1322,0.016315
2364.9959,0.015985
2366.8595,0.016205
2368.7232,0.016358
2370.5869,0.016155
2372.4505,0.015934
2374.3142,0.015667
2376.1779,0.015717
2378.0415,0.015952
2379.9052,0.016048
2381.7689,0.015776
2383.6325,0.015327
2385.4962,0.015084
2387.3599,0.015130
2389.2236,0.015091
2391.0872,0.014966
2392.9509,0.014859
2394.8146,0.014945
2396.6782,0.015160
2398.5419,0.015177
2400.4056,0.015053
2402.2692,0.015087
2404.1329,0.015416
2405.9966,0.015667
2407.8602,0.015723
2409.7239,0.015978
2411.5876,0.016095
2413.4512,0.016016
2415.3149,0.015942
2417.1786,0.015817
2419.0423,0.015795
2420.9059,0.016116
2422.7696,0.016367
2424.6333,0.016218
2426.4969,0.016155
2428.3606,0.016561
2430.2243,0.016923
2432.0879,0.016809
2433.9516,0.016510
2435.8153,0.016476
2437.6789,0.016727
2439.5426,0.017175
2441.4063,0.017324
2443.2700,0.017280
2445.1336,0.017120
2446.9973,0.017066
2448.8610,0.017148
2450.7246,0.017330
2452.5883,0.017675
2454.4520,0.017652
2456.3156,0.017532
2458.1793,0.017758
2460.0430,0.017632
2461.9066,0.017701
2463.7703,0.018132
2465.6340,0.018295
2467.4976,0.018208
2469.3613,0.018060
2471.2250,0.017867
2473.0887,0.018173
2474.9523,0.018518
2476.8160,0.018346
2478.6797,0.018165
2480.5433,0.018183
2482.4070,0.018170
2484.2707,0.018324
2486.1343,0.018546
2487.9980,0.018566
2489.8617,0.018491
2491.7253,0.018689
2493.5890,0.019039
2495.4527,0.019371
2497.3164,0.019634
2499.1800,0.019691
2501.0437,0.019422
2502.9074,0.019313
2504.7710,0.019393
2506.6347,0.019367
2508.4984,0.019183
2510.3620,0.019239
2512.2257,0.019696
2514.0894,0.019854
2515.9530,0.019599
2517.8167,0.019615
2519.6804,0.019932
2521.5440,0.020203
2523.4077,0.020216
2525.2714,0.020453
2527.1351,0.020675
2528.9987,0.020500
2530.8624,0.020359
2532.7261,0.020385
2534.5897,0.020548
2536.4534,0.020993
2538.3171,0.021374
2540.1807,0.021156
2542.0444,0.020508
2543.9081,0.020545
2545.7717,0.021003
2547.6354,0.021198
2549.4991,0.021271
2551.3627,0.021364
2553.2264,0.021246
2555.0901,0.021364
2556.9538,0.021743
2558.8174,0.022116
2560.6811,0.022233
2562.5448,0.022076
2564.4084,0.022083
2566.2721,0.022253
2568.1358,0.022554
2569.9994,0.022572
2571.8631,0.022605
2573.7268,0.022957
2575.5904,0.023016
2577.4541,0.022986
2579.3178,0.023256
2581.1815,0.023524
2583.0451,0.023632
2584.9088,0.023803
2586.7725,0.023718
2588.6361,0.023798
2590.4998,0.024195
2592.3635,0.024474
2594.2271,0.024505
2596.0908,0.024672
2597.9545,0.024725
2599.8181,0.024862
2601.6818,0.025268
2603.5455,0.025543
2605.4091,0.025642
2607.2728,0.025713
2609.1365,0.025899
2611.0002,0.025972
2612.8638,0.025841
2614.7275,0.026120
2616.5912,0.026553
2618.4548,0.026670
2620.3185,0.026795
2622.1822,0.027086
2624.0458,0.027063
2625.9095,0.027056
2627.7732,0.027283
2629.6368,0.027533
2631.5005,0.027765
2633.3642,0.027927
2635.2279,0.028049
2637.0915,0.028121
2638.9552,0.028214
2640.8189,0.028541
2642.6825,0.028748
2644.5462,0.028772
2646.4099,0.028890
2648.2735,0.029070
2650.1372,0.029291
2652.0009,0.029435
2653.8645,0.029377
2655.7282,0.029400
2657.5919,0.029529
2659.4555,0.029524
2661.3192,0.029481
2663.1829,0.029493
2665.0466,0.029652
2666.9102,0.029957
2668.7739,0.030159
2670.6376,0.030192
2672.5012,0.030294
2674.3649,0.030521
2676.2286,0.030757
2678.0922,0.030899
2679.9559,0.030881
2681.8196,0.030847
2683.6832,0.030959
2685.5469,0.031220
2687.4106,0.031338
2689.2742,0.031518
2691.1379,0.031845
2693.0016,0.032038
2694.8653,0.032261
2696.7289,0.032535
2698.5926,0.032671
2700.4563,0.032643
2702.3199,0.032663
2704.1836,0.032887
2706.0473,0.033229
2707.9109,0.033519
2709.7746,0.033665
2711.6383,0.033781
2713.5019,0.034025
2715.3656,0.034382
2717.2293,0.034715
2719.0930,0.034966
2720.9566,0.035047
2722.8203,0.035170
2724.6840,0.035481
2726.5476,0.035581
2728.4113,0.035706
2730.2750,0.036085
2732.1386,0.036329
2734.0023,0.036546
2735.8660,0.036877
2737.7296,0.037019
2739.5933,0.037106
2741.4570,0.037442
2743.3206,0.037738
2745.1843,0.037964
2747.0480,0.038207
2748.9117,0.038402
2750.7753,0.038628
2752.6390,0.038946
2754.5027,0.039309
2756.3663,0.039529
2758.2300,0.039522
2760.0937,0.039629
2761.9573,0.039867
2763.8210,0.040135
2765.6847,0.040518
2767.5483,0.040977
2769.4120,0.041348
2771.2757,0.041547
2773.1394,0.041851
2775.0030,0.042062
2776.8667,0.042076
2778.7304,0.042405
2780.5940,0.042855
2782.4577,0.043020
2784.3214,0.043204
2786.1850,0.043421
2788.0487,0.043805
2789.9124,0.044148
2791.7760,0.044164
2793.6397,0.044551
2795.5034,0.045221
2797.3670,0.045383
2799.2307,0.045451
2801.0944,0.045770
2802.9581,0.046090
2804.8217,0.046239
2806.6854,0.046533
2808.5491,0.046995
2810.4127,0.047283
2812.2764,0.047358
2814.1401,0.047484
2816.0037,0.047633
2817.8674,0.047770
2819.7311,0.048148
2821.5947,0.048629
2823.4584,0.048954
2825.3221,0.049208
2827.1857,0.049672
2829.0494,0.050073
2830.9131,0.050192
2832.7768,0.050522
2834.6404,0.051106
2836.5041,0.051622
2838.3678,0.052071
2840.2314,0.052534
2842.0951,0.053009
2843.9588,0.053702
2845.8224,0.054565
2847.6861,0.055361
2849.5498,0.055778
2851.4134,0.056150
2853.2771,0.056707
2855.1408,0.056892
2857.0045,0.057024
2858.8681,0.057409
2860.7318,0.057656
2862.5955,0.058046
2864.4591,0.058967
2866.3228,0.059821
2868.1865,0.060441
2870.0501,0.061013
2871.9138,0.061365
2873.7775,0.061534
2875.6411,0.061436
2877.5048,0.061160
2879.3685,0.060959
2881.2321,0.061030
2883.0958,0.060962
2884.9595,0.060942
2886.8232,0.061080
2888.6868,0.061257
2890.5505,0.061278
2892.4142,0.061265
2894.2778,0.061497
2896.1415,0.061823
2898.0052,0.062016
2899.8688,0.062677
2901.7325,0.063247
2903.5962,0.063602
2905.4598,0.064033
2907.3235,0.064506
2909.1872,0.065030
2911.0509,0.065677
2912.9145,0.066566
2914.7782,0.067770
2916.6419,0.068548
2918.5055,0.068662
2920.3692,0.068771
2922.2329,0.069251
2924.0965,0.069897
2925.9602,0.070447
2927.8239,0.070453
2929.6875,0.070243
2931.5512,0.069971
2933.4149,0.069814
2935.2785,0.069540
2937.1422,0.069265
2939.0059,0.069156
2940.8696,0.068855
2942.7332,0.068547
2944.5969,0.068272
2946.4606,0.067977
2948.3242,0.068215
2950.1879,0.068472
2952.0516,0.068492
2953.9152,0.068605
2955.7789,0.068954
2957.6426,0.069099
2959.5062,0.069033
2961.3699,0.068846
2963.2336,0.068490
2965.0972,0.067907
2966.9609,0.067617
2968.8246,0.067375
2970.6883,0.066708
2972.5519,0.066256
2974.4156,0.066007
2976.2793,0.065074
2978.1429,0.064232
2980.0066,0.063680
2981.8703,0.063150
2983.7339,0.062775
2985.5976,0.062558
2987.4613,0.062176
2989.3249,0.062031
2991.1886,0.061845
2993.0523,0.061324
2994.9160,0.060883
2996.7796,0.060899
2998.6433,0.061132
3000.5070,0.061213
3002.3706,0.061298
3004.2343,0.061839
3006.0980,0.061827
3007.9616,0.061958
3009.8253,0.062459
3011.6890,0.062936
3013.5526,0.063006
3015.4163,0.062873
3017.2800,0.063020
3019.1436,0.063714
3021.0073,0.064081
3022.8710,0.064441
3024.7347,0.064781
3026.5983,0.065010
3028.4620,0.065461
3030.3257,0.066249
3032.1893,0.066772
3034.0530,0.066948
3035.9167,0.067045
3037.7803,0.067665
3039.6440,0.068096
3041.5077,0.068555
3043.3713,0.069083
3045.2350,0.068994
3047.0987,0.068855
3048.9624,0.069305
3050.8260,0.069600
3052.6897,0.069667
3054.5534,0.070065
3056.4170,0.070743
3058.2807,0.070742
3060.1444,0.070707
3062.0080,0.071047
3063.8717,0.071228
3065.7354,0.071328
3067.5990,0.071400
3069.4627,0.071061
3071.3264,0.071171
3073.1900,0.071464
3075.0537,0.071500
3076.9174,0.071653
3078.7811,0.071753
3080.6447,0.071125
3082.5084,0.070687
3084.3721,0.070836
3086.2357,0.070720
3088.0994,0.070403
3089.9631,0.070294
3091.8267,0.069875
3093.6904,0.069847
3095.5541,0.070164
3097.4177,0.069974
3099.2814,0.069753
3101.1451,0.070062
3103.0087,0.069836
3104.8724,0.069820
3106.7361,0.069775
3108.5998,0.069740
3110.4634,0.069762
3112.3271,0.070099
3114.1908,0.070525
3116.0544,0.070871
3117.9181,0.070631
3119.7818,0.070639
3121.6454,0.070784
3123.5091,0.071059
3125.3728,0.071075
3127.2364,0.071643
3129.1001,0.072111
3130.9638,0.072533
3132.8275,0.072772
3134.6911,0.073177
3136.5548,0.073429
3138.4185,0.073741
3140.2821,0.073861
3142.1458,0.074382
3144.0095,0.074955
3145.8731,0.075362
3147.7368,0.076073
3149.6005,0.077069
3151.4641,0.077325
3153.3278,0.077237
3155.1915,0.077358
3157.0551,0.077967
3158.9188,0.078338
3160.7825,0.078638
3162.6462,0.079102
3164.5098,0.079790
3166.3735,0.080360
3168.2372,0.081070
3170.1008,0.081603
3171.9645,0.081693
3173.8282,0.082014
3175.6918,0.082683
3177.5555,0.082755
3179.4192,0.082937
3181.2828,0.083323
3183.1465,0.084117
3185.0102,0.084836
3186.8739,0.085111
3188.7375,0.085322
3190.6012,0.085590
3192.4649,0.085939
3194.3285,0.086334
3196.1922,0.086257
3198.0559,0.086515
3199.9195,0.087006
3201.7832,0.087613
3203.6469,0.087596
3205.5105,0.087557
3207.3742,0.087694
3209.2379,0.087802
3211.1015,0.087763
3212.9652,0.088027
3214.8289,0.087784
3216.6926,0.087944
3218.5562,0.088257
3220.4199,0.088382
3222.2836,0.088062
3224.1472,0.088292
3226.0109,0.088336
3227.8746,0.089004
3229.7382,0.089762
3231.6019,0.089844
3233.4656,0.089549
3235.3292,0.089715
3237.1929,0.089989
3239.0566,0.090415
3240.9202,0.090687
3242.7839,0.090803
3244.6476,0.090737
3246.5113,0.090916
3248.3749,0.091438
3250.2386,0.091503
3252.1023,0.091364
3253.9659,0.092059
3255.8296,0.092410
3257.6933,0.092381
3259.5569,0.092493
3261.4206,0.092710
3263.2843,0.092534
3265.1479,0.093363
3267.0116,0.093817
3268.8753,0.093723
3270.7390,0.093628
3272.6026,0.093422
3274.4663,0.092646
3276.3300,0.092416
3278.1936,0.092526
3280.0573,0.092863
3281.9210,0.092556
3283.7846,0.092308
3285.6483,0.091761
3287.5120,0.091706
3289.3756,0.091234
3291.2393,0.090693
3293.1030,0.089752
3294.9666,0.089023
3296.8303,0.088627
3298.6940,0.088262
3300.5577,0.087626
3302.4213,0.087446
3304.2850,0.086825
3306.1487,0.085943
3308.0123,0.084832
3309.8760,0.083988
3311.7397,0.083261
3313.6033,0.082921
3315.4670,0.082307
3317.3307,0.082267
3319.1943,0.081404
3321.0580,0.080443
3322.9217,0.079939
3324.7854,0.080120
3326.6490,0.079688
3328.5127,0.079151
3330.3764,0.078351
3332.2400,0.077343
3334.1037,0.076831
3335.9674,0.077170
3337.8310,0.077105
3339.6947,0.076633
3341.5584,0.075642
3343.4220,0.074908
3345.2857,0.074318
3347.1494,0.074501
3349.0130,0.074095
3350.8767,0.073741
3352.7404,0.073270
3354.6041,0.072629
3356.4677,0.072077
3358.3314,0.071946
3360.1951,0.071550
3362.0587,0.071070
3363.9224,0.070622
3365.7861,0.070591
3367.6497,0.070251
3369.5134,0.070082
3371.3771,0.069456
3373.2407,0.068774
3375.1044,0.068205
3376.9681,0.067527
3378.8317,0.067479
3380.6954,0.068125
3382.5591,0.067484
3384.4228,0.066638
3386.2864,0.065984
3388.1501,0.065491
3390.0138,0.065108
3391.8774,0.065540
3393.7411,0.065572
3395.6048,0.064922
3397.4684,0.064031
3399.3321,0.063423
3401.1958,0.063152
3403.0594,0.063314
3404.9231,0.062995
3406.7868,0.062240
3408.6505,0.061290
3410.5141,0.060826
3412.3778,0.060859
3414.2415,0.061099
3416.1051,0.060385
3417.9688,0.059802
3419.8325,0.059268
3421.6961,0.059049
3423.5598,0.058682
3425.4235,0.058076
3427.2871,0.057436
3429.1508,0.057566
3431.0145,0.057442
3432.8781,0.056677
3434.7418,0.055957
3436.6055,0.055942
3438.4692,0.055398
3440.3328,0.054360
3442.1965,0.053905
3444.0602,0.054345
3445.9238,0.053742
3447.7875,0.052638
3449.6512,0.051886
3451.5148,0.051879
3453.3785,0.051310
3455.2422,0.051169
3457.1058,0.051463
3458.9695,0.051055
3460.8332,0.049812
3462.6969,0.048969
3464.5605,0.048082
3466.4242,0.048285
3468.2879,0.048488
3470.1515,0.047780
3472.0152,0.046461
3473.8789,0.046065
3475.7425,0.045975
3477.6062,0.045882
3479.4699,0.044687
3481.3335,0.043825
3483.1972,0.043466
3485.0609,0.043032
3486.9245,0.042659
3488.7882,0.042109
3490.6519,0.041149
3492.5156,0.040621
3494.3792,0.040290
3496.2429,0.039918
3498.1066,0.039285
3499.9702,0.038304
3501.8339,0.036697
3503.6976,0.036264
3505.5612,0.036797
3507.4249,0.037126
3509.2886,0.036500
3511.1522,0.035401
3513.0159,0.034881
3514.8796,0.034507
3516.7432,0.033507
3518.6069,0.032552
3520.4706,0.032604
3522.3343,0.032528
3524.1979,0.032067
3526.0616,0.031517
3527.9253,0.030477
3529.7889,0.029764
3531.6526,0.029679
3533.5163,0.028894
3535.3799,0.027892
3537.2436,0.027657
3539.1073,0.027697
3540.9709,0.027634
3542.8346,0.026677
3544.6983,0.025519
3546.5620,0.024605
3548.4256,0.023839
3550.2893,0.023377
3552.1530,0.022813
3554.0166,0.021974
3555.8803,0.021848
3557.7440,0.021791
3559.6076,0.020682
3561.4713,0.020229
3563.3350,0.020755
3565.1986,0.019966
3567.0623,0.018234
3568.9260,0.017015
3570.7896,0.016684
3572.6533,0.016629
3574.5170,0.016783
3576.3807,0.016475
3578.2443,0.015275
3580.1080,0.014145
3581.9717,0.013800
3583.8353,0.013570
3585.6990,0.013097
3587.5627,0.012680
3589.4263,0.011751
3591.2900,0.010867
3593.1537,0.010573
3595.0173,0.010357
3596.8810,0.010195
3598.7447,0.009484
3600.6084,0.008512
3602.4720,0.008312
3604.3357,0.008353
3606.1994,0.008081
3608.0630,0.007253
3609.9267,0.006280
3611.7904,0.005731
3613.6540,0.005291
3615.5177,0.005190
3617.3814,0.005883
3619.2450,0.005067
3621.1087,0.003170
3622.9724,0.002966
3624.8360,0.003162
3626.6997,0.002801
3628.5634,0.002438
3630.4271,0.001115
3632.2907,0.000367
3634.1544,0.000997
3636.0181,0.001124
3637.8817,0.000852
3639.7454,0.000320
3641.6091,0.000120
3643.4727,0.000236
3645.3364,-0.000073
3647.2001,-0.000786
3649.0637,-0.002163
3650.9274,-0.003311
3652.7911,-0.003912
3654.6547,-0.003134
3656.5184,-0.002755
3658.3821,-0.003691
3660.2458,-0.004002
3662.1094,-0.003646
3663.9731,-0.003489
3665.8368,-0.003716
3667.7004,-0.004018
3669.5641,-0.004165
3671.4278,-0.004901
3673.2914,-0.005428
3675.1551,-0.005438
3677.0188,-0.006505
3678.8824,-0.006706
3680.7461,-0.005660
3682.6098,-0.005361
3684.4735,-0.005426
3686.3371,-0.005448
3688.2008,-0.005946
3690.0645,-0.007102
3691.9281,-0.007280
3693.7918,-0.006895
3695.6555,-0.006670
3697.5191,-0.006337
3699.3828,-0.006135
3701.2465,-0.006374
3703.1101,-0.006966
3704.9738,-0.006503
3706.8375,-0.005975
3708.7011,-0.005878
3710.5648,-0.005810
3712.4285,-0.006541
3714.2922,-0.007446
3716.1558,-0.007137
3718.0195,-0.006551
3719.8832,-0.006321
3721.7468,-0.006279
3723.6105,-0.006357
3725.4742,-0.006638
3727.3378,-0.007012
3729.2015,-0.006815
3731.0652,-0.006352
3732.9288,-0.005959
3734.7925,-0.006309
3736.6562,-0.007393
3738.5199,-0.007408
3740.3835,-0.006363
3742.2472,-0.005956
3744.1109,-0.006721
3745.9745,-0.008045
3747.8382,-0.007983
3749.7019,-0.006891
3751.5655,-0.007639
3753.4292,-0.008444
3755.2929,-0.007755
3757.1565,-0.006719
3759.0202,-0.006498
3760.8839,-0.006852
3762.7475,-0.006755
3764.6112,-0.006104
3766.4749,-0.006075
3768.3386,-0.006467
3770.2022,-0.006718
3772.0659,-0.007154
3773.9296,-0.006828
3775.7932,-0.006330
3777.6569,-0.006309
3779.5206,-0.006372
3781.3842,-0.006683
3783.2479,-0.006711
3785.1116,-0.006929
3786.9752,-0.007155
3788.8389,-0.006600
3790.7026,-0.006102
3792.5662,-0.006010
3794.4299,-0.005974
3796.2936,-0.006015
3798.1573,-0.006389
3800.0209,-0.006569
3801.8846,-0.006619
3803.7483,-0.007176
3805.6119,-0.006940
3807.4756,-0.006822
3809.3393,-0.007134
3811.2029,-0.006749
3813.0666,-0.006165
3814.9303,-0.006009
3816.7939,-0.006227
3818.6576,-0.006860
3820.5213,-0.006819
3822.3850,-0.007369
3824.2486,-0.007311
3826.1123,-0.006595
3827.9760,-0.006486
3829.8396,-0.006349
3831.7033,-0.006299
3833.5670,-0.006698
3835.4306,-0.006508
3837.2943,-0.006356
3839.1580,-0.006724
3841.0216,-0.007077
3842.8853,-0.006982
3844.7490,-0.007171
3846.6126,-0.007152
3848.4763,-0.006467
3850.3400,-0.005701
3852.2037,-0.005527
3854.0673,-0.006239
3855.9310,-0.007299
3857.7947,-0.007243
3859.6583,-0.006713
3861.5220,-0.005899
3863.3857,-0.005842
3865.2493,-0.006466
3867.1130,-0.006404
3868.9767,-0.005799
3870.8403,-0.006122
3872.7040,-0.006743
3874.5677,-0.006506
3876.4314,-0.006853
3878.2950,-0.006498
3880.1587,-0.005769
3882.0224,-0.006245
3883.8860,-0.006389
3885.7497,-0.005855
3887.6134,-0.006336
3889.4770,-0.006496
3891.3407,-0.006184
3893.2044,-0.006531
3895.0680,-0.006124
3896.9317,-0.005587
3898.7954,-0.005561
3900.6590,-0.005892
3902.5227,-0.006199
3904.3864,-0.006464
3906.2501,-0.006556
3908.1137,-0.006246
3909.9774,-0.006024
3911.8411,-0.006044
3913.7047,-0.005760
3915.5684,-0.005578
3917.4321,-0.005713
3919.2957,-0.006167
3921.1594,-0.006007
3923.0231,-0.005483
3924.8867,-0.005591
3926.7504,-0.006153
3928.6141,-0.005915
3930.4777,-0.005533
3932.3414,-0.005597
3934.2051,-0.005924
3936.0688,-0.006057
3937.9324,-0.006203
3939.7961,-0.006209
3941.6598,-0.005757
3943.5234,-0.005585
3945.3871,-0.005925
3947.2508,-0.006009
3949.1144,-0.006040
3950.9781,-0.006146
3952.8418,-0.006027
3954.7054,-0.005884
3956.5691,-0.006041
3958.4328,-0.005890
3960.2965,-0.005434
3962.1601,-0.005365
3964.0238,-0.005796
3965.8875,-0.005684
3967.7511,-0.005405
3969.6148,-0.005470
3971.4785,-0.005476
3973.3421,-0.005643
3975.2058,-0.006043
3977.0695,-0.006085
3978.9331,-0.005771
3980.7968,-0.005480
3982.6605,-0.005870
3984.5241,-0.006172
3986.3878,-0.006150
3988.2515,-0.005891
3990.1152,-0.005552
3991.9788,-0.005405
3993.8425,-0.005355
3995.7062,-0.005443
3997.5698,-0.005543
3999.4335,-0.005636
