Wavenumber,Intensity
650.4205,0.016330
652.2841,0.015892
654.1478,0.016688
656.0115,0.015821
657.8751,0.015638
659.7388,0.016089
661.6025,0.014905
663.4661,0.013926
665.3298,0.014153
667.1935,0.014268
669.0571,0.014863
670.9208,0.015332
672.7845,0.014587
674.6481,0.014775
676.5118,0.015699
678.3755,0.015962
680.2392,0.016114
682.1028,0.015158
683.9665,0.012828
685.8302,0.010880
687.6938,0.010454
689.5575,0.011758
691.4212,0.013229
693.2848,0.013300
695.1485,0.012737
697.0122,0.013174
698.8758,0.013643
700.7395,0.012678
702.6032,0.011945
704.4669,0.011697
706.3305,0.011538
708.1942,0.011729
710.0579,0.011496
711.9215,0.010380
713.7852,0.009817
715.6489,0.010289
717.5125,0.010252
719.3762,0.010202
721.2399,0.009687
723.1035,0.009078
724.9672,0.009229
726.8309,0.009528
728.6945,0.009432
730.5582,0.008760
732.4219,0.008098
734.2856,0.008317
736.1492,0.009011
738.0129,0.008969
739.8766,0.008334
741.7402,0.008004
743.6039,0.007936
745.4676,0.007954
747.3312,0.008035
749.1949,0.008093
751.0586,0.007961
752.9222,0.007642
754.7859,0.007415
756.6496,0.007498
758.5132,0.007515
760.3769,0.007648
762.2406,0.007545
764.1043,0.007008
765.9679,0.006975
767.8316,0.007039
769.6953,0.006966
771.5589,0.006822
773.4226,0.006643
775.2863,0.006495
777.1499,0.006288
779.0136,0.006204
780.8773,0.006090
782.7409,0.006014
784.6046,0.006078
786.4683,0.005782
788.3320,0.005340
790.1956,0.005027
792.0593,0.004907
793.9230,0.005112
795.7866,0.005424
797.6503,0.005186
799.5140,0.004871
801.3776,0.004899
803.2413,0.004665
805.1050,0.004618
806.9686,0.004840
808.8323,0.004558
810.6960,0.004297
812.5596,0.004678
814.4233,0.005039
816.2870,0.004804
818.1507,0.004247
820.0143,0.003963
821.8780,0.004031
823.7417,0.004153
825.6053,0.003893
827.4690,0.003458
829.3327,0.003342
831.1963,0.003352
833.0600,0.003306
834.9237,0.003135
836.7873,0.003166
838.6510,0.003153
840.5147,0.002969
842.3784,0.002814
844.2420,0.002559
846.1057,0.002598
847.9694,0.002874
849.8330,0.002941
851.6967,0.002720
853.5604,0.002381
855.4240,0.002365
857.2877,0.002654
859.1514,0.003032
861.0150,0.003116
862.8787,0.003102
864.7424,0.003222
866.6060,0.003130
868.4697,0.003055
870.3334,0.003193
872.1971,0.003323
874.0607,0.003426
875.9244,0.003561
877.7881,0.003455
879.6517,0.003296
881.5154,0.003366
883.3791,0.003224
885.2427,0.003068
887.1064,0.003046
888.9701,0.003115
890.8337,0.003128
892.6974,0.003140
894.5611,0.003145
896.4247,0.003172
898.2884,0.003232
900.1521,0.003180
902.0158,0.003224
903.8794,0.003253
905.7431,0.003216
907.6068,0.003166
909.4704,0.003289
911.3341,0.003469
913.1978,0.003515
915.0614,0.003554
916.9251,0.003711
918.7888,0.003748
920.6524,0.003804
922.5161,0.003836
924.3798,0.003815
926.2435,0.003871
928.1071,0.003964
929.9708,0.004012
931.8345,0.004018
933.6981,0.004139
935.5618,0.004269
937.4255,0.004200
939.2891,0.004214
941.1528,0.004611
943.0165,0.004914
944.8801,0.005041
946.7438,0.005130
948.6075,0.005182
950.4711,0.005209
952.3348,0.005150
954.1985,0.005112
956.0622,0.005301
957.9258,0.005565
959.7895,0.005913
961.6532,0.006333
963.5168,0.006693
965.3805,0.007000
967.2442,0.007208
969.1078,0.007267
970.9715,0.007128
972.8352,0.007127
974.6988,0.007195
976.5625,0.007251
978.4262,0.007371
980.2899,0.007446
982.1535,0.007689
984.0172,0.008094
985.8809,0.008407
987.7445,0.008693
989.6082,0.008985
991.4719,0.009191
993.3355,0.009456
995.1992,0.009869
997.0629,0.010239
998.9265,0.010427
1000.7902,0.010672
1002.6539,0.010926
1004.5175,0.011224
1006.3812,0.011701
1008.2449,0.012253
1010.1086,0.012787
1011.9722,0.013295
1013.8359,0.013880
1015.6996,0.014439
1017.5632,0.014872
1019.4269,0.015178
1021.2906,0.015466
1023.1542,0.015820
1025.0179,0.016035
1026.8816,0.016144
1028.7452,0.016274
1030.6089,0.016408
1032.4726,0.016556
1034.3362,0.016696
1036.1999,0.016693
1038.0636,0.016611
1039.9273,0.016554
1041.7909,0.016474
1043.6546,0.016276
1045.5183,0.016093
1047.3819,0.016021
1049.2456,0.016069
1051.1093,0.016087
1052.9729,0.016186
1054.8366,0.016260
1056.7003,0.016150
1058.5639,0.016084
1060.4276,0.016108
1062.2913,0.016152
1064.1550,0.016293
1066.0186,0.016359
1067.8823,0.016429
1069.7460,0.016426
1071.6096,0.016237
1073.4733,0.016052
1075.3370,0.015854
1077.2006,0.015523
1079.0643,0.015043
1080.9280,0.014487
1082.7916,0.013886
1084.6553,0.013227
1086.5190,0.012624
1088.3826,0.012102
1090.2463,0.011663
1092.1100,0.011411
1093.9737,0.011136
1095.8373,0.010741
1097.7010,0.010393
1099.5647,0.010136
1101.4283,0.009975
1103.2920,0.009929
1105.1557,0.009897
1107.0193,0.009724
1108.8830,0.009604
1110.7467,0.009623
1112.6103,0.009619
1114.4740,0.009574
1116.3377,0.009497
1118.2014,0.009363
1120.0650,0.009256
1121.9287,0.009116
1123.7924,0.009017
1125.6560,0.008949
1127.5197,0.008817
1129.3834,0.008643
1131.2470,0.008396
1133.1107,0.008103
1134.9744,0.007885
1136.8380,0.007761
1138.7017,0.007603
1140.5654,0.007436
1142.4290,0.007359
1144.2927,0.007344
1146.1564,0.007341
1148.0201,0.007277
1149.8837,0.007282
1151.7474,0.007338
1153.6111,0.007411
1155.4747,0.007492
1157.3384,0.007486
1159.2021,0.007348
1161.0657,0.007171
1162.9294,0.007014
1164.7931,0.007019
1166.6567,0.006931
1168.5204,0.006542
1170.3841,0.006091
1172.2477,0.005605
1174.1114,0.005209
1175.9751,0.004911
1177.8388,0.004568
1179.7024,0.004209
1181.5661,0.004050
1183.4298,0.004059
1185.2934,0.004089
1187.1571,0.004090
1189.0208,0.004109
1190.8844,0.004227
1192.7481,0.004365
1194.6118,0.004534
1196.4754,0.004805
1198.3391,0.005089
1200.2028,0.005269
1202.0665,0.005486
1203.9301,0.005781
1205.7938,0.005947
1207.6575,0.006069
1209.5211,0.006251
1211.3848,0.006493
1213.2485,0.006617
1215.1121,0.006725
1216.9758,0.006848
1218.8395,0.007016
1220.7031,0.007238
1222.5668,0.007434
1224.4305,0.007606
1226.2941,0.007791
1228.1578,0.007916
1230.0215,0.007931
1231.8852,0.007884
1233.7488,0.007989
1235.6125,0.008083
1237.4762,0.008004
1239.3398,0.007846
1241.2035,0.007737
1243.0672,0.007666
1244.9308,0.007542
1246.7945,0.007421
1248.6582,0.007256
1250.5218,0.007057
1252.3855,0.006848
1254.2492,0.006653
1256.1129,0.006555
1257.9765,0.006371
1259.8402,0.006229
1261.7039,0.006205
1263.5675,0.006086
1265.4312,0.005895
1267.2949,0.005826
1269.1585,0.005838
1271.0222,0.005807
1272.8859,0.005723
1274.7495,0.005612
1276.6132,0.005570
1278.4769,0.005564
1280.3405,0.005547
1282.2042,0.005484
1284.0679,0.005419
1285.9316,0.005404
1287.7952,0.005418
1289.6589,0.005431
1291.5226,0.005332
1293.3862,0.005261
1295.2499,0.005243
1297.1136,0.005336
1298.9772,0.005463
1300.8409,0.005552
1302.7046,0.005656
1304.5682,0.005690
1306.4319,0.005689
1308.2956,0.005737
1310.1592,0.005854
1312.0229,0.005958
1313.8866,0.005854
1315.7503,0.005695
1317.6139,0.005658
1319.4776,0.005564
1321.3413,0.005412
1323.2049,0.005321
1325.0686,0.005203
1326.9323,0.005141
1328.7959,0.005098
1330.6596,0.005086
1332.5233,0.005124
1334.3869,0.005068
1336.2506,0.005183
1338.1143,0.005295
1339.9780,0.005189
1341.8416,0.005177
1343.7053,0.005183
1345.5690,0.005210
1347.4326,0.005193
1349.2963,0.005127
1351.1600,0.005151
1353.0236,0.005217
1354.8873,0.005278
1356.7510,0.005341
1358.6146,0.005340
1360.4783,0.005513
1362.3420,0.005832
1364.2056,0.006152
1366.0693,0.006417
1367.9330,0.006733
1369.7967,0.006935
1371.6603,0.007073
1373.5240,0.007336
1375.3877,0.007451
1377.2513,0.007360
1379.1150,0.007453
1380.9787,0.007561
1382.8423,0.007691
1384.7060,0.007727
1386.5697,0.007774
1388.4333,0.007773
1390.2970,0.007653
1392.1607,0.007598
1394.0244,0.007690
1395.8880,0.007725
1397.7517,0.007593
1399.6154,0.007698
1401.4790,0.007584
1403.3427,0.007547
1405.2064,0.007479
1407.0700,0.007213
1408.9337,0.007119
1410.7974,0.007020
1412.6610,0.006780
1414.5247,0.006636
1416.3884,0.006535
1418.2520,0.006375
1420.1157,0.006435
1421.9794,0.006222
1423.8431,0.006149
1425.7067,0.006176
1427.5704,0.006175
1429.4341,0.006335
1431.2977,0.006476
1433.1614,0.006603
1435.0251,0.006751
1436.8887,0.007115
1438.7524,0.007189
1440.6161,0.007162
1442.4797,0.007168
1444.3434,0.007105
1446.2071,0.007076
1448.0707,0.007074
1449.9344,0.006940
1451.7981,0.006859
1453.6618,0.006836
1455.5254,0.006580
1457.3891,0.006398
1459.2528,0.006108
1461.1164,0.005793
1462.9801,0.005386
1464.8438,0.005330
1466.7074,0.005212
1468.5711,0.005058
1470.4348,0.004706
1472.2984,0.004490
1474.1621,0.004194
1476.0258,0.003923
1477.8895,0.003973
1479.7531,0.004043
1481.6168,0.004141
1483.4805,0.004281
1485.3441,0.004504
1487.2078,0.004919
1489.0715,0.005415
1490.9351,0.006050
1492.7988,0.006415
1494.6625,0.006846
1496.5261,0.007650
1498.3898,0.008190
1500.2535,0.008543
1502.1171,0.008910
1503.9808,0.009275
1505.8445,0.010285
1507.7082,0.011713
1509.5718,0.012043
1511.4355,0.012317
1513.2992,0.012707
1515.1628,0.012865
1517.0265,0.013171
1518.8902,0.013087
1520.7538,0.013349
1522.6175,0.013859
1524.4812,0.013897
1526.3448,0.014127
1528.2085,0.014135
1530.0722,0.014021
1531.9359,0.013883
1533.7995,0.014293
1535.6632,0.014024
1537.5269,0.013633
1539.3905,0.013813
1541.2542,0.014080
1543.1179,0.013837
1544.9815,0.013663
1546.8452,0.013252
1548.7089,0.012711
1550.5725,0.012147
1552.4362,0.011580
1554.2999,0.011401
1556.1635,0.010708
1558.0272,0.010335
1559.8909,0.010279
1561.7546,0.009418
1563.6182,0.008888
1565.4819,0.008484
1567.3456,0.007921
1569.2092,0.007548
1571.0729,0.007345
1572.9366,0.007032
1574.8002,0.006661
1576.6639,0.006536
1578.5276,0.006315
1580.3912,0.006173
1582.2549,0.006179
1584.1186,0.006189
1585.9822,0.006177
1587.8459,0.006143
1589.7096,0.006415
1591.5733,0.006787
1593.4369,0.007144
1595.3006,0.007632
1597.1643,0.008069
1599.0279,0.008387
1600.8916,0.008868
1602.7553,0.009407
1604.6189,0.010006
1606.4826,0.010550
1608.3463,0.011164
1610.2099,0.011907
1612.0736,0.012541
1613.9373,0.012986
1615.8010,0.014108
1617.6646,0.014969
1619.5283,0.014898
1621.3920,0.015111
1623.2556,0.015916
1625.1193,0.016533
1626.9830,0.017004
1628.8466,0.017280
1630.7103,0.017341
1632.5740,0.017179
1634.4376,0.017000
1636.3013,0.017125
1638.1650,0.017006
1640.0286,0.016790
1641.8923,0.016464
1643.7560,0.015915
1645.6197,0.015308
1647.4833,0.015244
1649.3470,0.014816
1651.2107,0.014169
1653.0743,0.014217
1654.9380,0.013421
1656.8017,0.012695
1658.6653,0.012091
1660.5290,0.011300
1662.3927,0.010495
1664.2563,0.009981
1666.1200,0.009543
1667.9837,0.008951
1669.8474,0.008207
1671.7110,0.007462
1673.5747,0.006793
1675.4384,0.006093
1677.3020,0.005178
1679.1657,0.004724
1681.0294,0.004137
1682.8930,0.003127
1684.7567,0.001765
1686.6204,0.001241
1688.4840,0.001025
1690.3477,0.000262
1692.2114,-0.000456
1694.0750,-0.001221
1695.9387,-0.002363
1697.8024,-0.003560
1699.6661,-0.004574
1701.5297,-0.005683
1703.3934,-0.005566
1705.2571,-0.005798
1707.1207,-0.006539
1708.9844,-0.006745
1710.8481,-0.006749
1712.7117,-0.006775
1714.5754,-0.006916
1716.4391,-0.007817
1718.3027,-0.008507
1720.1664,-0.008304
1722.0301,-0.008177
1723.8937,-0.008251
1725.7574,-0.008093
1727.6211,-0.008048
1729.4848,-0.007980
1731.3484,-0.008025
1733.2121,-0.008503
1735.0758,-0.009105
1736.9394,-0.008932
1738.8031,-0.008720
1740.6668,-0.008935
1742.5304,-0.008950
1744.3941,-0.008769
1746.2578,-0.008669
1748.1214,-0.009006
1749.9851,-0.009636
1751.8488,-0.009658
1753.7125,-0.009367
1755.5761,-0.009446
1757.4398,-0.009675
1759.3035,-0.009651
1761.1671,-0.009851
1763.0308,-0.010215
1764.8945,-0.009961
1766.7581,-0.009676
1768.6218,-0.009825
1770.4855,-0.010147
1772.3491,-0.010504
1774.2128,-0.010478
1776.0765,-0.010042
1777.9401,-0.009829
1779.8038,-0.009869
1781.6675,-0.010108
1783.5312,-0.009980
1785.3948,-0.009850
1787.2585,-0.009841
1789.1222,-0.009851
1790.9858,-0.009993
1792.8495,-0.010287
1794.7132,-0.010023
1796.5768,-0.009578
1798.4405,-0.009710
1800.3042,-0.010189
1802.1678,-0.010223
1804.0315,-0.009975
1805.8952,-0.009888
1807.7589,-0.009905
1809.6225,-0.009960
1811.4862,-0.009944
1813.3499,-0.009874
1815.2135,-0.009771
1817.0772,-0.009618
1818.9409,-0.009642
1820.8045,-0.009772
1822.6682,-0.009760
1824.5319,-0.009493
1826.3955,-0.009283
1828.2592,-0.009286
1830.1229,-0.009362
1831.9865,-0.009248
1833.8502,-0.009270
1835.7139,-0.009493
1837.5776,-0.009368
1839.4412,-0.009256
1841.3049,-0.009128
1843.1686,-0.008940
1845.0322,-0.009319
1846.8959,-0.009292
1848.7596,-0.008918
1850.6232,-0.009013
1852.4869,-0.008849
1854.3506,-0.008525
1856.2142,-0.008568
1858.0779,-0.008777
1859.9416,-0.008842
1861.8052,-0.009032
1863.6689,-0.009140
1865.5326,-0.008756
1867.3963,-0.008626
1869.2599,-0.008925
1871.1236,-0.008565
1872.9873,-0.008429
1874.8509,-0.008862
1876.7146,-0.008929
1878.5783,-0.008415
1880.4419,-0.008314
1882.3056,-0.008378
1884.1693,-0.007983
1886.0329,-0.007999
1887.8966,-0.008715
1889.7603,-0.009053
1891.6240,-0.008668
1893.4876,-0.008351
1895.3513,-0.008252
1897.2150,-0.008131
1899.0786,-0.008181
1900.9423,-0.008278
1902.8060,-0.008208
1904.6696,-0.008203
1906.5333,-0.008266
1908.3970,-0.007993
1910.2606,-0.008002
1912.1243,-0.007989
1913.9880,-0.007789
1915.8516,-0.007916
1917.7153,-0.007656
1919.5790,-0.007014
1921.4427,-0.007437
1923.3063,-0.008340
1925.1700,-0.008129
1927.0337,-0.007609
1928.8973,-0.007562
1930.7610,-0.007381
1932.6247,-0.007068
1934.4883,-0.007033
1936.3520,-0.007165
1938.2157,-0.007131
1940.0793,-0.006845
1941.9430,-0.006677
1943.8067,-0.006657
1945.6704,-0.006514
1947.5340,-0.006429
1949.3977,-0.006451
1951.2614,-0.006466
1953.1250,-0.006386
1954.9887,-0.006300
1956.8524,-0.006027
1958.7160,-0.006271
1960.5797,-0.006334
1962.4434,-0.005684
1964.3070,-0.004182
1966.1707,-0.003813
1968.0344,-0.005566
1969.8980,-0.006423
1971.7617,-0.005373
1973.6254,-0.004805
1975.4891,-0.004123
1977.3527,-0.002883
1979.2164,-0.002484
1981.0801,-0.002890
1982.9437,-0.003223
1984.8074,-0.003106
1986.6711,-0.003379
1988.5347,-0.004398
1990.3984,-0.005046
1992.2621,-0.005382
1994.1257,-0.005376
1995.9894,-0.005280
1997.8531,-0.005586
1999.7167,-0.005530
2001.5804,-0.004653
2003.4441,-0.004379
2005.3078,-0.004866
2007.1714,-0.004778
2009.0351,-0.004138
2010.8988,-0.004173
2012.7624,-0.004241
2014.6261,-0.004368
2016.4898,-0.003597
2018.3534,-0.002283
2020.2171,-0.003557
2022.0808,-0.004859
2023.9444,-0.004379
2025.8081,-0.003292
2027.6718,-0.002366
2029.5355,-0.003023
2031.3991,-0.004659
2033.2628,-0.003822
2035.1265,-0.002153
2036.9901,-0.002975
2038.8538,-0.004644
2040.7175,-0.005064
2042.5811,-0.003734
2044.4448,-0.003376
2046.3085,-0.004541
2048.1721,-0.003510
2050.0358,-0.002172
2051.8995,-0.003145
2053.7631,-0.003860
2055.6268,-0.003582
2057.4905,-0.004124
2059.3542,-0.004648
2061.2178,-0.004725
2063.0815,-0.004813
2064.9452,-0.004597
2066.8088,-0.004465
2068.6725,-0.004807
2070.5362,-0.005022
2072.3998,-0.004861
2074.2635,-0.004953
2076.1272,-0.005261
2077.9908,-0.005161
2079.8545,-0.004994
2081.7182,-0.005363
2083.5819,-0.005809
2085.4455,-0.006073
2087.3092,-0.006211
2089.1729,-0.006199
2091.0365,-0.006684
2092.9002,-0.007262
2094.7639,-0.006977
2096.6275,-0.006581
2098.4912,-0.006647
2100.3549,-0.006490
2102.2185,-0.006634
2104.0822,-0.007119
2105.9459,-0.007184
2107.8095,-0.006672
2109.6732,-0.006257
2111.5369,-0.006188
2113.4006,-0.006524
2115.2642,-0.006902
2117.1279,-0.007308
2118.9916,-0.007985
2120.8552,-0.007924
2122.7189,-0.007349
2124.5826,-0.007028
2126.4462,-0.006910
2128.3099,-0.006800
2130.1736,-0.006814
2132.0372,-0.007343
2133.9009,-0.007401
2135.7646,-0.006770
2137.6282,-0.006100
2139.4919,-0.006076
2141.3556,-0.006138
2143.2193,-0.005651
2145.0829,-0.004959
2146.9466,-0.004554
2148.8103,-0.005405
2150.6739,-0.006330
2152.5376,-0.005770
2154.4013,-0.004659
2156.2649,-0.004644
2158.1286,-0.005391
2159.9923,-0.004086
2161.8559,-0.001941
2163.7196,-0.002539
2165.5833,-0.003261
2167.4470,-0.002972
2169.3106,-0.004205
2171.1743,-0.005385
2173.0380,-0.005324
2174.9016,-0.004431
2176.7653,-0.004716
2178.6290,-0.005348
2180.4926,-0.005061
2182.3563,-0.004542
2184.2200,-0.005002
2186.0836,-0.004613
2187.9473,-0.004293
2189.8110,-0.004473
2191.6746,-0.004199
2193.5383,-0.004710
2195.4020,-0.004967
2197.2657,-0.005131
2199.1293,-0.005376
2200.9930,-0.004557
2202.8567,-0.003705
2204.7203,-0.004126
2206.5840,-0.004819
2208.4477,-0.005267
2210.3113,-0.005416
2212.1750,-0.005178
2214.0387,-0.005322
2215.9023,-0.005433
2217.7660,-0.004899
2219.6297,-0.004617
2221.4934,-0.004754
2223.3570,-0.005316
2225.2207,-0.005839
2227.0844,-0.005925
2228.9480,-0.005636
2230.8117,-0.005587
2232.6754,-0.006009
2234.5390,-0.006076
2236.4027,-0.006396
2238.2664,-0.006436
2240.1300,-0.005802
2241.9937,-0.005875
2243.8574,-0.005585
2245.7210,-0.005327
2247.5847,-0.005880
2249.4484,-0.006402
2251.3121,-0.006638
2253.1757,-0.006499
2255.0394,-0.005952
2256.9031,-0.005651
2258.7667,-0.006087
2260.6304,-0.006725
2262.4941,-0.007013
2264.3577,-0.007023
2266.2214,-0.006854
2268.0851,-0.007109
2269.9487,-0.007199
2271.8124,-0.006661
2273.6761,-0.007003
2275.5397,-0.007169
2277.4034,-0.006752
2279.2671,-0.007144
2281.1308,-0.006969
2282.9944,-0.006482
2284.8581,-0.007012
2286.7218,-0.007426
2288.5854,-0.007444
2290.4491,-0.007161
2292.3128,-0.007304
2294.1764,-0.007665
2296.0401,-0.007724
2297.9038,-0.007804
2299.7674,-0.007813
2301.6311,-0.008116
2303.4948,-0.008456
2305.3585,-0.008090
2307.2221,-0.007907
2309.0858,-0.008511
2310.9495,-0.008629
2312.8131,-0.008320
2314.6768,-0.008333
2316.5405,-0.008315
2318.4041,-0.007823
2320.2678,-0.007525
2322.1315,-0.007684
2323.9951,-0.007957
2325.8588,-0.008089
2327.7225,-0.008579
2329.5861,-0.009037
2331.4498,-0.009461
2333.3135,-0.009530
2335.1772,-0.009597
2337.0408,-0.009662
2338.9045,-0.009465
2340.7682,-0.009709
2342.6318,-0.009852
2344.4955,-0.009789
2346.3592,-0.009885
2348.2228,-0.009474
2350.0865,-0.009149
2351.9502,-0.009361
2353.8138,-0.009353
2355.6775,-0.009118
2357.5412,-0.010061
2359.4049,-0.010572
2361.2685,-0.009637
2363.1322,-0.008964
2364.9959,-0.009044
2366.8595,-0.009487
2368.7232,-0.010068
2370.5869,-0.010015
2372.4505,-0.009462
2374.3142,-0.009210
2376.1779,-0.009732
2378.0415,-0.009912
2379.9052,-0.009559
2381.7689,-0.009216
2383.6325,-0.009317
2385.4962,-0.009362
2387.3599,-0.009168
2389.2236,-0.009126
2391.0872,-0.009076
2392.9509,-0.009172
2394.8146,-0.009151
2396.6782,-0.009113
2398.5419,-0.009039
2400.4056,-0.008824
2402.2692,-0.008805
2404.1329,-0.008831
2405.9966,-0.008852
2407.8602,-0.008737
2409.7239,-0.008657
2411.5876,-0.008718
2413.4512,-0.008678
2415.3149,-0.008715
2417.1786,-0.008680
2419.0423,-0.008646
2420.9059,-0.008335
2422.7696,-0.008094
2424.6333,-0.008256
2426.4969,-0.008397
2428.3606,-0.008351
2430.2243,-0.008376
2432.0879,-0.008448
2433.9516,-0.008305
2435.8153,-0.008137
2437.6789,-0.008301
2439.5426,-0.008542
2441.4063,-0.008511
2443.2700,-0.008292
2445.1336,-0.007991
2446.9973,-0.008024
2448.8610,-0.007923
2450.7246,-0.007686
2452.5883,-0.008037
2454.4520,-0.008452
2456.3156,-0.008191
2458.1793,-0.007908
2460.0430,-0.007946
2461.9066,-0.007959
2463.7703,-0.007891
2465.6340,-0.007870
2467.4976,-0.008233
2469.3613,-0.008044
2471.2250,-0.007828
2473.0887,-0.007985
2474.9523,-0.008191
2476.8160,-0.008270
2478.6797,-0.008254
2480.5433,-0.008257
2482.4070,-0.008000
2484.2707,-0.008133
2486.1343,-0.008312
2487.9980,-0.008358
2489.8617,-0.008200
2491.7253,-0.007779
2493.5890,-0.007670
2495.4527,-0.007862
2497.3164,-0.007905
2499.1800,-0.007786
2501.0437,-0.008140
2502.9074,-0.008027
2504.7710,-0.007985
2506.6347,-0.008233
2508.4984,-0.008175
2510.3620,-0.007869
2512.2257,-0.007797
2514.0894,-0.007876
2515.9530,-0.007843
2517.8167,-0.008010
2519.6804,-0.007960
2521.5440,-0.007784
2523.4077,-0.007945
2525.2714,-0.008087
2527.1351,-0.007559
2528.9987,-0.007314
2530.8624,-0.007537
2532.7261,-0.007789
2534.5897,-0.007757
2536.4534,-0.007670
2538.3171,-0.007680
2540.1807,-0.007898
2542.0444,-0.007706
2543.9081,-0.007593
2545.7717,-0.007607
2547.6354,-0.007575
2549.4991,-0.007813
2551.3627,-0.007702
2553.2264,-0.007561
2555.0901,-0.007572
2556.9538,-0.007903
2558.8174,-0.007919
2560.6811,-0.007500
2562.5448,-0.007400
2564.4084,-0.007323
2566.2721,-0.007397
2568.1358,-0.007408
2569.9994,-0.007395
2571.8631,-0.007428
2573.7268,-0.007331
2575.5904,-0.007365
2577.4541,-0.007397
2579.3178,-0.007562
2581.1815,-0.007773
2583.0451,-0.007714
2584.9088,-0.007471
2586.7725,-0.007465
2588.6361,-0.007373
2590.4998,-0.007376
2592.3635,-0.007470
2594.2271,-0.007318
2596.0908,-0.007482
2597.9545,-0.007669
2599.8181,-0.007421
2601.6818,-0.007175
2603.5455,-0.007166
2605.4091,-0.007155
2607.2728,-0.007233
2609.1365,-0.007434
2611.0002,-0.007488
2612.8638,-0.007454
2614.7275,-0.007426
2616.5912,-0.007298
2618.4548,-0.007457
2620.3185,-0.007616
2622.1822,-0.007557
2624.0458,-0.007368
2625.9095,-0.007293
2627.7732,-0.007369
2629.6368,-0.007221
2631.5005,-0.007215
2633.3642,-0.007104
2635.2279,-0.007226
2637.0915,-0.007323
2638.9552,-0.007175
2640.8189,-0.007204
2642.6825,-0.007257
2644.5462,-0.007250
2646.4099,-0.007227
2648.2735,-0.007320
2650.1372,-0.007314
2652.0009,-0.007211
2653.8645,-0.007175
2655.7282,-0.007485
2657.5919,-0.007449
2659.4555,-0.007365
2661.3192,-0.007616
2663.1829,-0.007824
2665.0466,-0.007843
2666.9102,-0.007813
2668.7739,-0.007700
2670.6376,-0.007579
2672.5012,-0.007588
2674.3649,-0.007563
2676.2286,-0.007528
2678.0922,-0.007554
2679.9559,-0.007727
2681.8196,-0.007729
2683.6832,-0.007691
2685.5469,-0.007735
2687.4106,-0.007627
2689.2742,-0.007451
2691.1379,-0.007387
2693.0016,-0.007419
2694.8653,-0.007478
2696.7289,-0.007408
2698.5926,-0.007499
2700.4563,-0.007453
2702.3199,-0.007349
2704.1836,-0.007436
2706.0473,-0.007496
2707.9109,-0.007378
2709.7746,-0.007115
2711.6383,-0.007110
2713.5019,-0.007072
2715.3656,-0.007098
2717.2293,-0.007195
2719.0930,-0.007202
2720.9566,-0.007026
2722.8203,-0.006888
2724.6840,-0.006807
2726.5476,-0.006858
2728.4113,-0.007059
2730.2750,-0.007018
2732.1386,-0.006731
2734.0023,-0.006779
2735.8660,-0.006899
2737.7296,-0.006794
2739.5933,-0.006630
2741.4570,-0.006626
2743.3206,-0.006735
2745.1843,-0.006634
2747.0480,-0.006480
2748.9117,-0.006366
2750.7753,-0.006236
2752.6390,-0.006324
2754.5027,-0.006397
2756.3663,-0.006398
2758.2300,-0.006394
2760.0937,-0.006370
2761.9573,-0.006191
2763.8210,-0.006066
2765.6847,-0.005974
2767.5483,-0.005974
2769.4120,-0.006011
2771.2757,-0.006006
2773.1394,-0.005846
2775.0030,-0.005838
2776.8667,-0.005934
2778.7304,-0.005699
2780.5940,-0.005466
2782.4577,-0.005672
2784.3214,-0.005917
2786.1850,-0.005856
2788.0487,-0.005636
2789.9124,-0.005506
2791.7760,-0.005511
2793.6397,-0.005472
2795.5034,-0.005288
2797.3670,-0.005282
2799.2307,-0.005395
2801.0944,-0.005209
2802.9581,-0.005082
2804.8217,-0.005064
2806.6854,-0.005093
2808.5491,-0.005078
2810.4127,-0.005127
2812.2764,-0.005246
2814.1401,-0.005032
2816.0037,-0.004822
2817.8674,-0.004644
2819.7311,-0.004711
2821.5947,-0.004808
2823.4584,-0.004612
2825.3221,-0.004462
2827.1857,-0.004268
2829.0494,-0.004218
2830.9131,-0.004315
2832.7768,-0.004093
2834.6404,-0.003996
2836.5041,-0.004208
2838.3678,-0.004221
2840.2314,-0.003952
2842.0951,-0.003751
2843.9588,-0.003597
2845.8224,-0.003295
2847.6861,-0.003038
2849.5498,-0.002818
2851.4134,-0.002662
2853.2771,-0.002558
2855.1408,-0.002535
2857.0045,-0.002812
2858.8681,-0.002917
2860.7318,-0.002676
2862.5955,-0.002567
2864.4591,-0.002533
2866.3228,-0.002497
2868.1865,-0.002523
2870.0501,-0.002610
2871.9138,-0.002347
2873.7775,-0.001828
2875.6411,-0.001831
2877.5048,-0.002090
2879.3685,-0.002215
2881.2321,-0.002366
2883.0958,-0.002441
2884.9595,-0.002259
2886.8232,-0.002080
2888.6868,-0.002061
2890.5505,-0.001978
2892.4142,-0.001906
2894.2778,-0.001988
2896.1415,-0.001962
2898.0052,-0.001851
2899.8688,-0.001698
2901.7325,-0.001548
2903.5962,-0.001494
2905.4598,-0.001506
2907.3235,-0.001243
2909.1872,-0.000995
2911.0509,-0.001036
2912.9145,-0.001113
2914.7782,-0.000922
2916.6419,-0.000611
2918.5055,-0.000421
2920.3692,-0.000433
2922.2329,-0.000282
2924.0965,0.000021
2925.9602,0.000012
2927.8239,-0.000253
2929.6875,-0.000346
2931.5512,-0.000344
2933.4149,-0.000415
2935.2785,-0.000371
2937.1422,-0.000237
2939.0059,-0.000446
2940.8696,-0.000609
2942.7332,-0.000536
2944.5969,-0.000715
2946.4606,-0.000901
2948.3242,-0.000937
2950.1879,-0.001043
2952.0516,-0.000911
2953.9152,-0.000643
2955.7789,-0.000595
2957.6426,-0.000969
2959.5062,-0.001145
2961.3699,-0.000767
2963.2336,-0.000493
2965.0972,-0.000778
2966.9609,-0.001151
2968.8246,-0.001319
2970.6883,-0.001311
2972.5519,-0.001365
2974.4156,-0.001468
2976.2793,-0.001470
2978.1429,-0.001603
2980.0066,-0.002027
2981.8703,-0.002258
2983.7339,-0.002222
2985.5976,-0.001957
2987.4613,-0.002004
2989.3249,-0.002220
2991.1886,-0.002453
2993.0523,-0.002598
2994.9160,-0.002574
2996.7796,-0.002488
2998.6433,-0.002388
3000.5070,-0.002385
3002.3706,-0.002466
3004.2343,-0.002483
3006.0980,-0.002573
3007.9616,-0.002533
3009.8253,-0.002324
3011.6890,-0.002182
3013.5526,-0.002138
3015.4163,-0.002224
3017.2800,-0.002327
3019.1436,-0.002100
3021.0073,-0.002051
3022.8710,-0.002108
3024.7347,-0.001854
3026.5983,-0.001618
3028.4620,-0.001800
3030.3257,-0.001836
3032.1893,-0.001579
3034.0530,-0.001627
3035.9167,-0.001766
3037.7803,-0.001481
3039.6440,-0.001184
3041.5077,-0.001119
3043.3713,-0.001111
3045.2350,-0.000941
3047.0987,-0.000911
3048.9624,-0.000939
3050.8260,-0.001022
3052.6897,-0.001117
3054.5534,-0.000801
3056.4170,-0.000531
3058.2807,-0.000550
3060.1444,-0.000438
3062.0080,-0.000440
3063.8717,-0.000395
3065.7354,-0.000548
3067.5990,-0.000633
3069.4627,-0.000516
3071.3264,-0.000487
3073.1900,-0.000360
3075.0537,-0.000296
3076.9174,-0.000417
3078.7811,-0.000306
3080.6447,0.000080
3082.5084,0.000166
3084.3721,-0.000258
3086.2357,-0.000398
3088.0994,-0.000536
3089.9631,-0.000711
3091.8267,-0.000748
3093.6904,-0.000696
3095.5541,-0.000605
3097.4177,-0.000607
3099.2814,-0.000567
3101.1451,-0.000218
3103.0087,-0.000064
3104.8724,-0.000198
3106.7361,-0.000604
3108.5998,-0.000673
3110.4634,-0.000178
3112.3271,-0.000096
3114.1908,-0.000457
3116.0544,-0.000522
3117.9181,-0.000262
3119.7818,-0.000112
3121.6454,-0.000390
3123.5091,-0.000397
3125.3728,-0.000223
3127.2364,-0.000212
3129.1001,-0.000067
3130.9638,0.000348
3132.8275,0.000541
3134.6911,0.000396
3136.5548,0.000209
3138.4185,0.000197
3140.2821,0.000272
3142.1458,0.000480
3144.0095,0.000695
3145.8731,0.000676
3147.7368,0.000478
3149.6005,0.000579
3151.4641,0.000831
3153.3278,0.001103
3155.1915,0.001253
3157.0551,0.001117
3158.9188,0.000829
3160.7825,0.001049
3162.6462,0.001375
3164.5098,0.001369
3166.3735,0.001386
3168.2372,0.001729
3170.1008,0.002001
3171.9645,0.001853
3173.8282,0.001827
3175.6918,0.002194
3177.5555,0.002398
3179.4192,0.002525
3181.2828,0.002396
3183.1465,0.002234
3185.0102,0.002279
3186.8739,0.002221
3188.7375,0.002251
3190.6012,0.002465
3192.4649,0.002615
3194.3285,0.002671
3196.1922,0.002521
3198.0559,0.002837
3199.9195,0.003197
3201.7832,0.003051
3203.6469,0.002947
3205.5105,0.002847
3207.3742,0.002877
3209.2379,0.003201
3211.1015,0.003032
3212.9652,0.003067
3214.8289,0.003451
3216.6926,0.003361
3218.5562,0.003046
3220.4199,0.003196
3222.2836,0.003664
3224.1472,0.003788
3226.0109,0.003472
3227.8746,0.003364
3229.7382,0.003489
3231.6019,0.003673
3233.4656,0.003825
3235.3292,0.004079
3237.1929,0.004266
3239.0566,0.004417
3240.9202,0.004240
3242.7839,0.003944
3244.6476,0.004174
3246.5113,0.004680
3248.3749,0.004555
3250.2386,0.003946
3252.1023,0.003794
3253.9659,0.004469
3255.8296,0.004947
3257.6933,0.004698
3259.5569,0.004660
3261.4206,0.004830
3263.2843,0.004601
3265.1479,0.004614
3267.0116,0.004777
3268.8753,0.005094
3270.7390,0.005362
3272.6026,0.004906
3274.4663,0.004562
3276.3300,0.004885
3278.1936,0.004701
3280.0573,0.004481
3281.9210,0.004875
3283.7846,0.005000
3285.6483,0.004777
3287.5120,0.005023
3289.3756,0.004970
3291.2393,0.004786
3293.1030,0.004948
3294.9666,0.004771
3296.8303,0.004063
3298.6940,0.003773
3300.5577,0.004221
3302.4213,0.004564
3304.2850,0.004294
3306.1487,0.003889
3308.0123,0.003674
3309.8760,0.003787
3311.7397,0.003884
3313.6033,0.003902
3315.4670,0.003631
3317.3307,0.003506
3319.1943,0.003748
3321.0580,0.003624
3322.9217,0.003160
3324.7854,0.002681
3326.6490,0.002583
3328.5127,0.002973
3330.3764,0.003301
3332.2400,0.003139
3334.1037,0.002731
3335.9674,0.002713
3337.8310,0.002645
3339.6947,0.002711
3341.5584,0.002614
3343.4220,0.002201
3345.2857,0.002291
3347.1494,0.002771
3349.0130,0.002506
3350.8767,0.002131
3352.7404,0.001899
3354.6041,0.001983
3356.4677,0.002258
3358.3314,0.002128
3360.1951,0.001867
3362.0587,0.001963
3363.9224,0.001934
3365.7861,0.001618
3367.6497,0.001395
3369.5134,0.001233
3371.3771,0.001091
3373.2407,0.001432
3375.1044,0.001702
3376.9681,0.001089
3378.8317,0.000402
3380.6954,0.000654
3382.5591,0.000772
3384.4228,0.000771
3386.2864,0.000989
3388.1501,0.000907
3390.0138,0.000917
3391.8774,0.000941
3393.7411,0.000582
3395.6048,0.000425
3397.4684,0.000567
3399.3321,0.000280
3401.1958,-0.000016
3403.0594,-0.000123
3404.9231,-0.000464
3406.7868,-0.000685
3408.6505,-0.000539
3410.5141,-0.000145
3412.3778,-0.000426
3414.2415,-0.000701
3416.1051,-0.000091
3417.9688,0.000635
3419.8325,0.000070
3421.6961,-0.000536
3423.5598,-0.000428
3425.4235,-0.000262
3427.2871,-0.001049
3429.1508,-0.001484
3431.0145,-0.001228
3432.8781,-0.000831
3434.7418,-0.000319
3436.6055,-0.000739
3438.4692,-0.001459
3440.3328,-0.001393
3442.1965,-0.001590
3444.0602,-0.001882
3445.9238,-0.002074
3447.7875,-0.001975
3449.6512,-0.001628
3451.5148,-0.001998
3453.3785,-0.002829
3455.2422,-0.002622
3457.1058,-0.002182
3458.9695,-0.002403
3460.8332,-0.002859
3462.6969,-0.002410
3464.5605,-0.001726
3466.4242,-0.002052
3468.2879,-0.002781
3470.1515,-0.003106
3472.0152,-0.003533
3473.8789,-0.003817
3475.7425,-0.003906
3477.6062,-0.003545
3479.4699,-0.003141
3481.3335,-0.003019
3483.1972,-0.003780
3485.0609,-0.004354
3486.9245,-0.004233
3488.7882,-0.003694
3490.6519,-0.003490
3492.5156,-0.004264
3494.3792,-0.004811
3496.2429,-0.004793
3498.1066,-0.005220
3499.9702,-0.005482
3501.8339,-0.005225
3503.6976,-0.004750
3505.5612,-0.004837
3507.4249,-0.004724
3509.2886,-0.004900
3511.1522,-0.005518
3513.0159,-0.005639
3514.8796,-0.005286
3516.7432,-0.005777
3518.6069,-0.006198
3520.4706,-0.005816
3522.3343,-0.005596
3524.1979,-0.006260
3526.0616,-0.006773
3527.9253,-0.006386
3529.7889,-0.005806
3531.6526,-0.006231
3533.5163,-0.006666
3535.3799,-0.007357
3537.2436,-0.007652
3539.1073,-0.007243
3540.9709,-0.007305
3542.8346,-0.007717
3544.6983,-0.007644
3546.5620,-0.007293
3548.4256,-0.007446
3550.2893,-0.007976
3552.1530,-0.008165
3554.0166,-0.008057
3555.8803,-0.007934
3557.7440,-0.007946
3559.6076,-0.008216
3561.4713,-0.008471
3563.3350,-0.008341
3565.1986,-0.008582
3567.0623,-0.008911
3568.9260,-0.009934
3570.7896,-0.010046
3572.6533,-0.009713
3574.5170,-0.008982
3576.3807,-0.008941
3578.2443,-0.009298
3580.1080,-0.009603
3581.9717,-0.009850
3583.8353,-0.009627
3585.6990,-0.009609
3587.5627,-0.010256
3589.4263,-0.010108
3591.2900,-0.009947
3593.1537,-0.009784
3595.0173,-0.009893
3596.8810,-0.009862
3598.7447,-0.010206
3600.6084,-0.010590
3602.4720,-0.010619
3604.3357,-0.010660
3606.1994,-0.010751
3608.0630,-0.010998
3609.9267,-0.011263
3611.7904,-0.011179
3613.6540,-0.011149
3615.5177,-0.010883
3617.3814,-0.010807
3619.2450,-0.011328
3621.1087,-0.011995
3622.9724,-0.011718
3624.8360,-0.011461
3626.6997,-0.011807
3628.5634,-0.011963
3630.4271,-0.012226
3632.2907,-0.012042
3634.1544,-0.012032
3636.0181,-0.011906
3637.8817,-0.011432
3639.7454,-0.011556
3641.6091,-0.012165
3643.4727,-0.012123
3645.3364,-0.011678
3647.2001,-0.011925
3649.0637,-0.012063
3650.9274,-0.012322
3652.7911,-0.012535
3654.6547,-0.012340
3656.5184,-0.012351
3658.3821,-0.012629
3660.2458,-0.012736
3662.1094,-0.012376
3663.9731,-0.012321
3665.8368,-0.012458
3667.7004,-0.012031
3669.5641,-0.012061
3671.4278,-0.012774
3673.2914,-0.012573
3675.1551,-0.012573
3677.0188,-0.013293
3678.8824,-0.013312
3680.7461,-0.013074
3682.6098,-0.012742
3684.4735,-0.013180
3686.3371,-0.013122
3688.2008,-0.013225
3690.0645,-0.013799
3691.9281,-0.013510
3693.7918,-0.013150
3695.6555,-0.012898
3697.5191,-0.012708
3699.3828,-0.012671
3701.2465,-0.012875
3703.1101,-0.013263
3704.9738,-0.013058
3706.8375,-0.012956
3708.7011,-0.013049
3710.5648,-0.013273
3712.4285,-0.013693
3714.2922,-0.013474
3716.1558,-0.013056
3718.0195,-0.012950
3719.8832,-0.012800
3721.7468,-0.012933
3723.6105,-0.013402
3725.4742,-0.013784
3727.3378,-0.013669
3729.2015,-0.013207
3731.0652,-0.013002
3732.9288,-0.012934
3734.7925,-0.012961
3736.6562,-0.013566
3738.5199,-0.013394
3740.3835,-0.012890
3742.2472,-0.012475
3744.1109,-0.013092
3745.9745,-0.013835
3747.8382,-0.013271
3749.7019,-0.013315
3751.5655,-0.013451
3753.4292,-0.013673
3755.2929,-0.012960
3757.1565,-0.012611
3759.0202,-0.013117
3760.8839,-0.013480
3762.7475,-0.013517
3764.6112,-0.013288
3766.4749,-0.012968
3768.3386,-0.012830
3770.2022,-0.012991
3772.0659,-0.012987
3773.9296,-0.013079
3775.7932,-0.013097
3777.6569,-0.013048
3779.5206,-0.013259
3781.3842,-0.013042
3783.2479,-0.012783
3785.1116,-0.012917
3786.9752,-0.013255
3788.8389,-0.013061
3790.7026,-0.012860
3792.5662,-0.012872
3794.4299,-0.013014
3796.2936,-0.013272
3798.1573,-0.013190
3800.0209,-0.013018
3801.8846,-0.013712
3803.7483,-0.013923
3805.6119,-0.013224
3807.4756,-0.013379
3809.3393,-0.013617
3811.2029,-0.013226
3813.0666,-0.012843
3814.9303,-0.012662
3816.7939,-0.013081
3818.6576,-0.012965
3820.5213,-0.013302
3822.3850,-0.013880
3824.2486,-0.013235
3826.1123,-0.012817
3827.9760,-0.013146
3829.8396,-0.013142
3831.7033,-0.013011
3833.5670,-0.013249
3835.4306,-0.013474
3837.2943,-0.013289
3839.1580,-0.013367
3841.0216,-0.013864
3842.8853,-0.013734
3844.7490,-0.013365
3846.6126,-0.013018
3848.4763,-0.012817
3850.3400,-0.012734
3852.2037,-0.012867
3854.0673,-0.014193
3855.9310,-0.014369
3857.7947,-0.013403
3859.6583,-0.012870
3861.5220,-0.012953
3863.3857,-0.013420
3865.2493,-0.013554
3867.1130,-0.013132
3868.9767,-0.012973
3870.8403,-0.013418
3872.7040,-0.013615
3874.5677,-0.013836
3876.4314,-0.013290
3878.2950,-0.012881
3880.1587,-0.012938
3882.0224,-0.013052
3883.8860,-0.012918
3885.7497,-0.013110
3887.6134,-0.013122
3889.4770,-0.013276
3891.3407,-0.013462
3893.2044,-0.013417
3895.0680,-0.013199
3896.9317,-0.012937
3898.7954,-0.012932
3900.6590,-0.012907
3902.5227,-0.012801
3904.3864,-0.013195
3906.2501,-0.013143
3908.1137,-0.012702
3909.9774,-0.012941
3911.8411,-0.013162
3913.7047,-0.012972
3915.5684,-0.012709
3917.4321,-0.012829
3919.2957,-0.013362
3921.1594,-0.013568
3923.0231,-0.012942
3924.8867,-0.012594
3926.7504,-0.012973
3928.6141,-0.013235
3930.4777,-0.013069
3932.3414,-0.013045
3934.2051,-0.012990
3936.0688,-0.013005
3937.9324,-0.013222
3939.7961,-0.013261
3941.6598,-0.013258
3943.5234,-0.012798
3945.3871,-0.012518
3947.2508,-0.012993
3949.1144,-0.013011
3950.9781,-0.012859
3952.8418,-0.013203
3954.7054,-0.013217
3956.5691,-0.012609
3958.4328,-0.012663
3960.2965,-0.012841
3962.1601,-0.012887
3964.0238,-0.013193
3965.8875,-0.012951
3967.7511,-0.012795
3969.6148,-0.012981
3971.4785,-0.013017
3973.3421,-0.012976
3975.2058,-0.013283
3977.0695,-0.013196
3978.9331,-0.012799
3980.7968,-0.012936
3982.6605,-0.012941
3984.5241,-0.012875
3986.3878,-0.012833
3988.2515,-0.012699
3990.1152,-0.012771
3991.9788,-0.012785
3993.8425,-0.013006
3995.7062,-0.013307
3997.5698,-0.013127
3999.4335,-0.012854
