Wavenumber,Intensity
650.4205,0.056708
652.2841,0.054881
654.1478,0.052060
656.0115,0.050261
657.8751,0.047947
659.7388,0.049568
661.6025,0.052472
663.4661,0.051465
665.3298,0.049835
667.1935,0.049441
669.0571,0.049215
670.9208,0.048734
672.7845,0.048390
674.6481,0.048812
676.5118,0.048305
678.3755,0.047214
680.2392,0.046636
682.1028,0.045789
683.9665,0.045720
685.8302,0.046510
687.6938,0.045609
689.5575,0.044103
691.4212,0.044123
693.2848,0.044802
695.1485,0.044459
697.0122,0.043338
698.8758,0.042826
700.7395,0.042857
702.6032,0.042733
704.4669,0.042570
706.3305,0.041674
708.1942,0.040546
710.0579,0.040035
711.9215,0.039232
713.7852,0.038548
715.6489,0.038264
717.5125,0.038027
719.3762,0.037778
721.2399,0.037184
723.1035,0.036180
724.9672,0.035601
726.8309,0.035195
728.6945,0.034350
730.5582,0.034236
732.4219,0.034718
734.2856,0.034233
736.1492,0.033827
738.0129,0.034191
739.8766,0.034382
741.7402,0.034252
743.6039,0.034143
745.4676,0.033803
747.3312,0.033290
749.1949,0.032699
751.0586,0.031787
752.9222,0.031611
754.7859,0.031915
756.6496,0.031570
758.5132,0.030790
760.3769,0.030762
762.2406,0.031119
764.1043,0.031153
765.9679,0.030943
767.8316,0.030316
769.6953,0.030006
771.5589,0.030317
773.4226,0.030600
775.2863,0.030292
777.1499,0.029788
779.0136,0.029539
780.8773,0.029486
782.7409,0.029200
784.6046,0.028738
786.4683,0.028683
788.3320,0.028404
790.1956,0.027986
792.0593,0.027920
793.9230,0.027970
795.7866,0.028059
797.6503,0.028407
799.5140,0.028335
801.3776,0.028096
803.2413,0.027912
805.1050,0.027804
806.9686,0.027888
808.8323,0.027907
810.6960,0.027871
812.5596,0.027674
814.4233,0.027204
816.2870,0.027002
818.1507,0.027052
820.0143,0.026813
821.8780,0.026226
823.7417,0.026062
825.6053,0.025980
827.4690,0.025822
829.3327,0.025557
831.1963,0.025260
833.0600,0.024872
834.9237,0.024305
836.7873,0.023865
838.6510,0.023906
840.5147,0.024023
842.3784,0.023923
844.2420,0.023845
846.1057,0.023886
847.9694,0.023752
849.8330,0.023453
851.6967,0.023666
853.5604,0.023754
855.4240,0.023678
857.2877,0.023722
859.1514,0.023768
861.0150,0.024139
862.8787,0.024437
864.7424,0.024587
866.6060,0.024755
868.4697,0.024746
870.3334,0.024912
872.1971,0.025175
874.0607,0.025093
875.9244,0.025106
877.7881,0.025146
879.6517,0.025159
881.5154,0.025220
883.3791,0.025308
885.2427,0.025158
887.1064,0.025128
888.9701,0.025359
890.8337,0.025499
892.6974,0.025510
894.5611,0.025500
896.4247,0.025694
898.2884,0.025635
900.1521,0.025405
902.0158,0.025381
903.8794,0.025404
905.7431,0.025500
907.6068,0.025528
909.4704,0.025610
911.3341,0.025895
913.1978,0.026251
915.0614,0.026451
916.9251,0.026432
918.7888,0.026551
920.6524,0.026650
922.5161,0.026740
924.3798,0.026903
926.2435,0.026972
928.1071,0.026759
929.9708,0.026789
931.8345,0.027121
933.6981,0.027240
935.5618,0.027270
937.4255,0.027317
939.2891,0.027495
941.1528,0.027779
943.0165,0.028108
944.8801,0.028371
946.7438,0.028599
948.6075,0.028888
950.4711,0.029088
952.3348,0.029287
954.1985,0.029619
956.0622,0.029935
957.9258,0.030360
959.7895,0.030929
961.6532,0.031588
963.5168,0.032176
965.3805,0.032510
967.2442,0.032785
969.1078,0.032904
970.9715,0.032895
972.8352,0.032928
974.6988,0.033001
976.5625,0.033202
978.4262,0.033602
980.2899,0.033958
982.1535,0.034323
984.0172,0.034819
985.8809,0.035270
987.7445,0.035689
989.6082,0.036185
991.4719,0.036730
993.3355,0.037175
995.1992,0.037546
997.0629,0.037988
998.9265,0.038501
1000.7902,0.039120
1002.6539,0.039674
1004.5175,0.040221
1006.3812,0.040809
1008.2449,0.041506
1010.1086,0.042361
1011.9722,0.043272
1013.8359,0.044080
1015.6996,0.044874
1017.5632,0.045554
1019.4269,0.046086
1021.2906,0.046571
1023.1542,0.046931
1025.0179,0.047309
1026.8816,0.047545
1028.7452,0.047797
1030.6089,0.047996
1032.4726,0.048089
1034.3362,0.048146
1036.1999,0.048090
1038.0636,0.047985
1039.9273,0.047726
1041.7909,0.047495
1043.6546,0.047463
1045.5183,0.047439
1047.3819,0.047309
1049.2456,0.047236
1051.1093,0.047176
1052.9729,0.047087
1054.8366,0.047020
1056.7003,0.046864
1058.5639,0.046634
1060.4276,0.046417
1062.2913,0.046228
1064.1550,0.046080
1066.0186,0.045931
1067.8823,0.045755
1069.7460,0.045440
1071.6096,0.045185
1073.4733,0.044823
1075.3370,0.044279
1077.2006,0.043617
1079.0643,0.042847
1080.9280,0.041985
1082.7916,0.041157
1084.6553,0.040425
1086.5190,0.039584
1088.3826,0.038699
1090.2463,0.037917
1092.1100,0.037277
1093.9737,0.036735
1095.8373,0.036288
1097.7010,0.035934
1099.5647,0.035581
1101.4283,0.035245
1103.2920,0.034960
1105.1557,0.034708
1107.0193,0.034454
1108.8830,0.034266
1110.7467,0.034071
1112.6103,0.033824
1114.4740,0.033565
1116.3377,0.033290
1118.2014,0.032957
1120.0650,0.032674
1121.9287,0.032292
1123.7924,0.031915
1125.6560,0.031627
1127.5197,0.031258
1129.3834,0.030762
1131.2470,0.030240
1133.1107,0.029845
1134.9744,0.029589
1136.8380,0.029238
1138.7017,0.028879
1140.5654,0.028609
1142.4290,0.028543
1144.2927,0.028639
1146.1564,0.028747
1148.0201,0.028803
1149.8837,0.028926
1151.7474,0.029093
1153.6111,0.029103
1155.4747,0.029108
1157.3384,0.029141
1159.2021,0.029021
1161.0657,0.028855
1162.9294,0.028686
1164.7931,0.028372
1166.6567,0.028032
1168.5204,0.027667
1170.3841,0.027124
1172.2477,0.026469
1174.1114,0.025835
1175.9751,0.025241
1177.8388,0.024749
1179.7024,0.024427
1181.5661,0.024286
1183.4298,0.024274
1185.2934,0.024376
1187.1571,0.024551
1189.0208,0.024860
1190.8844,0.025212
1192.7481,0.025525
1194.6118,0.025885
1196.4754,0.026228
1198.3391,0.026653
1200.2028,0.027068
1202.0665,0.027439
1203.9301,0.027868
1205.7938,0.028185
1207.6575,0.028440
1209.5211,0.028693
1211.3848,0.028898
1213.2485,0.029123
1215.1121,0.029398
1216.9758,0.029708
1218.8395,0.030103
1220.7031,0.030368
1222.5668,0.030523
1224.4305,0.030735
1226.2941,0.030971
1228.1578,0.031210
1230.0215,0.031316
1231.8852,0.031358
1233.7488,0.031358
1235.6125,0.031270
1237.4762,0.031191
1239.3398,0.031015
1241.2035,0.030766
1243.0672,0.030512
1244.9308,0.030154
1246.7945,0.029832
1248.6582,0.029515
1250.5218,0.029243
1252.3855,0.028949
1254.2492,0.028622
1256.1129,0.028256
1257.9765,0.028012
1259.8402,0.027836
1261.7039,0.027563
1263.5675,0.027256
1265.4312,0.027068
1267.2949,0.026986
1269.1585,0.026960
1271.0222,0.026879
1272.8859,0.026732
1274.7495,0.026639
1276.6132,0.026563
1278.4769,0.026533
1280.3405,0.026501
1282.2042,0.026477
1284.0679,0.026510
1285.9316,0.026511
1287.7952,0.026470
1289.6589,0.026411
1291.5226,0.026393
1293.3862,0.026523
1295.2499,0.026739
1297.1136,0.026901
1298.9772,0.027023
1300.8409,0.027085
1302.7046,0.027070
1304.5682,0.027100
1306.4319,0.027292
1308.2956,0.027432
1310.1592,0.027470
1312.0229,0.027597
1313.8866,0.027563
1315.7503,0.027420
1317.6139,0.027304
1319.4776,0.027075
1321.3413,0.026793
1323.2049,0.026589
1325.0686,0.026472
1326.9323,0.026388
1328.7959,0.026355
1330.6596,0.026420
1332.5233,0.026505
1334.3869,0.026403
1336.2506,0.026451
1338.1143,0.026770
1339.9780,0.026917
1341.8416,0.026562
1343.7053,0.026413
1345.5690,0.026405
1347.4326,0.026449
1349.2963,0.026525
1351.1600,0.026556
1353.0236,0.026591
1354.8873,0.026743
1356.7510,0.026734
1358.6146,0.026912
1360.4783,0.027570
1362.3420,0.028448
1364.2056,0.028663
1366.0693,0.028784
1367.9330,0.029348
1369.7967,0.029629
1371.6603,0.029681
1373.5240,0.030333
1375.3877,0.030729
1377.2513,0.030702
1379.1150,0.030953
1380.9787,0.030957
1382.8423,0.030928
1384.7060,0.030906
1386.5697,0.031437
1388.4333,0.031384
1390.2970,0.030798
1392.1607,0.030668
1394.0244,0.031203
1395.8880,0.031365
1397.7517,0.031151
1399.6154,0.030994
1401.4790,0.030254
1403.3427,0.030337
1405.2064,0.030235
1407.0700,0.029779
1408.9337,0.029527
1410.7974,0.029413
1412.6610,0.029031
1414.5247,0.028827
1416.3884,0.028842
1418.2520,0.029591
1420.1157,0.029397
1421.9794,0.028890
1423.8431,0.029137
1425.7067,0.028798
1427.5704,0.028988
1429.4341,0.029564
1431.2977,0.029741
1433.1614,0.029775
1435.0251,0.030657
1436.8887,0.031747
1438.7524,0.031013
1440.6161,0.031002
1442.4797,0.031063
1444.3434,0.031087
1446.2071,0.031213
1448.0707,0.031263
1449.9344,0.030497
1451.7981,0.030176
1453.6618,0.029872
1455.5254,0.030731
1457.3891,0.030860
1459.2528,0.029126
1461.1164,0.028038
1462.9801,0.027997
1464.8438,0.028382
1466.7074,0.027407
1468.5711,0.026613
1470.4348,0.026650
1472.2984,0.027342
1474.1621,0.026489
1476.0258,0.026116
1477.8895,0.025543
1479.7531,0.025640
1481.6168,0.026186
1483.4805,0.026437
1485.3441,0.027217
1487.2078,0.028641
1489.0715,0.030142
1490.9351,0.030742
1492.7988,0.030742
1494.6625,0.032100
1496.5261,0.033995
1498.3898,0.035163
1500.2535,0.035467
1502.1171,0.035384
1503.9808,0.036461
1505.8445,0.039913
1507.7082,0.041396
1509.5718,0.040684
1511.4355,0.040848
1513.2992,0.041061
1515.1628,0.041801
1517.0265,0.041995
1518.8902,0.041357
1520.7538,0.042432
1522.6175,0.042073
1524.4812,0.042056
1526.3448,0.042168
1528.2085,0.041723
1530.0722,0.041431
1531.9359,0.041855
1533.7995,0.041804
1535.6632,0.040363
1537.5269,0.040871
1539.3905,0.041577
1541.2542,0.040804
1543.1179,0.039960
1544.9815,0.039150
1546.8452,0.037824
1548.7089,0.037352
1550.5725,0.036110
1552.4362,0.035116
1554.2999,0.034188
1556.1635,0.033295
1558.0272,0.034377
1559.8909,0.032123
1561.7546,0.030082
1563.6182,0.029539
1565.4819,0.028495
1567.3456,0.028200
1569.2092,0.028236
1571.0729,0.026900
1572.9366,0.026585
1574.8002,0.027179
1576.6639,0.026851
1578.5276,0.025713
1580.3912,0.025658
1582.2549,0.025764
1584.1186,0.026042
1585.9822,0.026153
1587.8459,0.026505
1589.7096,0.026751
1591.5733,0.027281
1593.4369,0.028080
1595.3006,0.028858
1597.1643,0.029456
1599.0279,0.030223
1600.8916,0.031086
1602.7553,0.032103
1604.6189,0.033199
1606.4826,0.034594
1608.3463,0.035952
1610.2099,0.036893
1612.0736,0.037721
1613.9373,0.038909
1615.8010,0.040857
1617.6646,0.041466
1619.5283,0.041740
1621.3920,0.042913
1623.2556,0.044032
1625.1193,0.044336
1626.9830,0.044928
1628.8466,0.044830
1630.7103,0.044686
1632.5740,0.044837
1634.4376,0.045751
1636.3013,0.044884
1638.1650,0.043717
1640.0286,0.043303
1641.8923,0.042652
1643.7560,0.042303
1645.6197,0.042165
1647.4833,0.040751
1649.3470,0.039389
1651.2107,0.039813
1653.0743,0.038889
1654.9380,0.035858
1656.8017,0.034907
1658.6653,0.033737
1660.5290,0.032990
1662.3927,0.032100
1664.2563,0.030553
1666.1200,0.029637
1667.9837,0.029123
1669.8474,0.027792
1671.7110,0.026388
1673.5747,0.025715
1675.4384,0.024240
1677.3020,0.022817
1679.1657,0.022392
1681.0294,0.021346
1682.8930,0.021545
1684.7567,0.019064
1686.6204,0.017319
1688.4840,0.016702
1690.3477,0.015564
1692.2114,0.014305
1694.0750,0.013841
1695.9387,0.012217
1697.8024,0.010895
1699.6661,0.010339
1701.5297,0.007506
1703.3934,0.007375
1705.2571,0.006565
1707.1207,0.005511
1708.9844,0.004929
1710.8481,0.004464
1712.7117,0.004261
1714.5754,0.004072
1716.4391,0.003685
1718.3027,0.002340
1720.1664,0.001577
1722.0301,0.001782
1723.8937,0.001387
1725.7574,0.001298
1727.6211,0.001221
1729.4848,0.001244
1731.3484,0.001323
1733.2121,0.001544
1735.0758,-0.000091
1736.9394,0.000169
1738.8031,0.000176
1740.6668,-0.000453
1742.5304,-0.000523
1744.3941,-0.000568
1746.2578,-0.000402
1748.1214,-0.000548
1749.9851,-0.000799
1751.8488,-0.001238
1753.7125,-0.001708
1755.5761,-0.001780
1757.4398,-0.002278
1759.3035,-0.002154
1761.1671,-0.002503
1763.0308,-0.003063
1764.8945,-0.002973
1766.7581,-0.002504
1768.6218,-0.002386
1770.4855,-0.002080
1772.3491,-0.002889
1774.2128,-0.003185
1776.0765,-0.002914
1777.9401,-0.002773
1779.8038,-0.002606
1781.6675,-0.002735
1783.5312,-0.002522
1785.3948,-0.002763
1787.2585,-0.002736
1789.1222,-0.002428
1790.9858,-0.002041
1792.8495,-0.002522
1794.7132,-0.002656
1796.5768,-0.002500
1798.4405,-0.002384
1800.3042,-0.002278
1802.1678,-0.002304
1804.0315,-0.002299
1805.8952,-0.002247
1807.7589,-0.002163
1809.6225,-0.002235
1811.4862,-0.002406
1813.3499,-0.002369
1815.2135,-0.002329
1817.0772,-0.002293
1818.9409,-0.002212
1820.8045,-0.002177
1822.6682,-0.002093
1824.5319,-0.002193
1826.3955,-0.002134
1828.2592,-0.001890
1830.1229,-0.002510
1831.9865,-0.002716
1833.8502,-0.002751
1835.7139,-0.002463
1837.5776,-0.002019
1839.4412,-0.001819
1841.3049,-0.001399
1843.1686,-0.001416
1845.0322,-0.002163
1846.8959,-0.002178
1848.7596,-0.002209
1850.6232,-0.002302
1852.4869,-0.002371
1854.3506,-0.001990
1856.2142,-0.001910
1858.0779,-0.002153
1859.9416,-0.002157
1861.8052,-0.002364
1863.6689,-0.002595
1865.5326,-0.002406
1867.3963,-0.001849
1869.2599,-0.001805
1871.1236,-0.001866
1872.9873,-0.001920
1874.8509,-0.002035
1876.7146,-0.002297
1878.5783,-0.002260
1880.4419,-0.001823
1882.3056,-0.001639
1884.1693,-0.001764
1886.0329,-0.002000
1887.8966,-0.001834
1889.7603,-0.001474
1891.6240,-0.001624
1893.4876,-0.001717
1895.3513,-0.001466
1897.2150,-0.001401
1899.0786,-0.001456
1900.9423,-0.001457
1902.8060,-0.001746
1904.6696,-0.002069
1906.5333,-0.002035
1908.3970,-0.001765
1910.2606,-0.001694
1912.1243,-0.001633
1913.9880,-0.001455
1915.8516,-0.001200
1917.7153,-0.001564
1919.5790,-0.002140
1921.4427,-0.002065
1923.3063,-0.001755
1925.1700,-0.001325
1927.0337,-0.001320
1928.8973,-0.001530
1930.7610,-0.001983
1932.6247,-0.002065
1934.4883,-0.002434
1936.3520,-0.002442
1938.2157,-0.001818
1940.0793,-0.001213
1941.9430,-0.001216
1943.8067,-0.001250
1945.6704,-0.000973
1947.5340,-0.001436
1949.3977,-0.001880
1951.2614,-0.001988
1953.1250,-0.002384
1954.9887,-0.001869
1956.8524,-0.001353
1958.7160,-0.002231
1960.5797,-0.001844
1962.4434,-0.000939
1964.3070,-0.001145
1966.1707,-0.000919
1968.0344,0.000230
1969.8980,-0.000038
1971.7617,-0.000200
1973.6254,0.000388
1975.4891,-0.000982
1977.3527,-0.001542
1979.2164,0.000658
1981.0801,0.000279
1982.9437,-0.001210
1984.8074,-0.001473
1986.6711,-0.000944
1988.5347,-0.000020
1990.3984,-0.000092
1992.2621,-0.000882
1994.1257,-0.000448
1995.9894,-0.000818
1997.8531,-0.000925
1999.7167,-0.000788
2001.5804,-0.001080
2003.4441,-0.000493
2005.3078,-0.000474
2007.1714,-0.001266
2009.0351,-0.001614
2010.8988,-0.002404
2012.7624,-0.001903
2014.6261,-0.000354
2016.4898,0.000367
2018.3534,0.000758
2020.2171,0.000770
2022.0808,-0.000374
2023.9444,-0.000985
2025.8081,-0.000041
2027.6718,0.000200
2029.5355,-0.000603
2031.3991,-0.000047
2033.2628,0.000533
2035.1265,0.000465
2036.9901,-0.000422
2038.8538,-0.000839
2040.7175,-0.000187
2042.5811,0.000719
2044.4448,0.001308
2046.3085,0.001110
2048.1721,0.000622
2050.0358,0.000656
2051.8995,0.000606
2053.7631,0.000801
2055.6268,0.001105
2057.4905,0.000747
2059.3542,0.000896
2061.2178,0.001447
2063.0815,0.000415
2064.9452,-0.000444
2066.8088,-0.000119
2068.6725,0.000329
2070.5362,0.000693
2072.3998,0.000694
2074.2635,0.000653
2076.1272,0.000585
2077.9908,0.000148
2079.8545,-0.000049
2081.7182,-0.000513
2083.5819,-0.000693
2085.4455,-0.000003
2087.3092,-0.000419
2089.1729,-0.000959
2091.0365,-0.000925
2092.9002,-0.001188
2094.7639,-0.000824
2096.6275,-0.000142
2098.4912,-0.000077
2100.3549,-0.000007
2102.2185,0.000177
2104.0822,0.000035
2105.9459,0.000068
2107.8095,0.000491
2109.6732,0.000237
2111.5369,-0.000427
2113.4006,-0.000434
2115.2642,-0.000066
2117.1279,-0.000379
2118.9916,-0.000945
2120.8552,-0.001377
2122.7189,-0.001355
2124.5826,-0.000715
2126.4462,-0.000258
2128.3099,-0.000076
2130.1736,-0.001317
2132.0372,-0.001329
2133.9009,-0.000413
2135.7646,-0.000390
2137.6282,-0.000206
2139.4919,-0.000560
2141.3556,-0.000534
2143.2193,-0.000053
2145.0829,-0.000575
2146.9466,-0.000429
2148.8103,0.000479
2150.6739,-0.000190
2152.5376,-0.000747
2154.4013,0.000144
2156.2649,0.000680
2158.1286,-0.000449
2159.9923,-0.000620
2161.8559,0.001607
2163.7196,0.001367
2165.5833,-0.000392
2167.4470,-0.000033
2169.3106,0.001474
2171.1743,0.000618
2173.0380,0.000316
2174.9016,0.000971
2176.7653,0.000850
2178.6290,0.000596
2180.4926,0.000903
2182.3563,0.001679
2184.2200,0.000358
2186.0836,-0.001248
2187.9473,-0.000134
2189.8110,0.001617
2191.6746,0.002154
2193.5383,0.001598
2195.4020,0.000107
2197.2657,-0.000453
2199.1293,0.000430
2200.9930,0.000617
2202.8567,0.000493
2204.7203,0.000645
2206.5840,0.000766
2208.4477,0.000462
2210.3113,0.000527
2212.1750,0.000820
2214.0387,0.000440
2215.9023,0.000013
2217.7660,0.000614
2219.6297,0.000335
2221.4934,-0.000184
2223.3570,-0.000450
2225.2207,0.000405
2227.0844,0.000683
2228.9480,-0.000217
2230.8117,0.000171
2232.6754,0.000504
2234.5390,-0.000021
2236.4027,0.000010
2238.2664,0.000146
2240.1300,-0.000504
2241.9937,0.000001
2243.8574,0.000105
2245.7210,-0.000930
2247.5847,-0.000432
2249.4484,0.000757
2251.3121,0.000736
2253.1757,-0.000166
2255.0394,-0.000105
2256.9031,0.000338
2258.7667,0.000056
2260.6304,-0.000105
2262.4941,0.000333
2264.3577,-0.000306
2266.2214,-0.000454
2268.0851,-0.000092
2269.9487,0.000463
2271.8124,0.000785
2273.6761,0.000491
2275.5397,0.000160
2277.4034,0.000101
2279.2671,-0.000132
2281.1308,-0.000183
2282.9944,-0.000151
2284.8581,-0.000489
2286.7218,-0.000594
2288.5854,-0.000345
2290.4491,-0.000368
2292.3128,-0.000306
2294.1764,0.000156
2296.0401,0.000138
2297.9038,-0.000205
2299.7674,-0.000237
2301.6311,-0.000205
2303.4948,-0.000139
2305.3585,-0.000122
2307.2221,0.000326
2309.0858,0.000145
2310.9495,-0.000283
2312.8131,-0.000137
2314.6768,-0.000079
2316.5405,-0.000046
2318.4041,0.000132
2320.2678,0.000110
2322.1315,0.000241
2323.9951,0.000172
2325.8588,-0.000002
2327.7225,0.000195
2329.5861,-0.000029
2331.4498,-0.000426
2333.3135,-0.000613
2335.1772,-0.000621
2337.0408,-0.000092
2338.9045,0.000203
2340.7682,0.000227
2342.6318,0.000339
2344.4955,0.000390
2346.3592,-0.000303
2348.2228,-0.000692
2350.0865,-0.000803
2351.9502,-0.000196
2353.8138,0.000480
2355.6775,0.000415
2357.5412,-0.000460
2359.4049,-0.000422
2361.2685,-0.000017
2363.1322,0.000695
2364.9959,0.000590
2366.8595,0.000203
2368.7232,0.000092
2370.5869,0.000079
2372.4505,0.000266
2374.3142,0.000434
2376.1779,0.000218
2378.0415,0.000018
2379.9052,-0.000076
2381.7689,-0.000208
2383.6325,-0.000178
2385.4962,-0.000120
2387.3599,-0.000027
2389.2236,-0.000062
2391.0872,-0.000238
2392.9509,0.000055
2394.8146,0.000011
2396.6782,-0.000157
2398.5419,-0.000062
2400.4056,-0.000043
2402.2692,-0.000186
2404.1329,-0.000082
2405.9966,-0.000135
2407.8602,-0.000075
2409.7239,0.000223
2411.5876,0.000155
2413.4512,0.000110
2415.3149,0.000231
2417.1786,0.000302
2419.0423,0.000630
2420.9059,0.000535
2422.7696,0.000247
2424.6333,0.000063
2426.4969,0.000186
2428.3606,0.000124
2430.2243,0.000275
2432.0879,0.000491
2433.9516,0.000698
2435.8153,0.000799
2437.6789,0.000901
2439.5426,0.000767
2441.4063,0.001044
2443.2700,0.001026
2445.1336,0.000818
2446.9973,0.000509
2448.8610,0.000571
2450.7246,0.000803
2452.5883,0.001084
2454.4520,0.001146
2456.3156,0.000827
2458.1793,0.000682
2460.0430,0.000892
2461.9066,0.000917
2463.7703,0.001039
2465.6340,0.000879
2467.4976,0.000800
2469.3613,0.001064
2471.2250,0.001255
2473.0887,0.001345
2474.9523,0.001588
2476.8160,0.001407
2478.6797,0.001063
2480.5433,0.000840
2482.4070,0.000973
2484.2707,0.000907
2486.1343,0.001075
2487.9980,0.001366
2489.8617,0.001310
2491.7253,0.001021
2493.5890,0.001098
2495.4527,0.001389
2497.3164,0.001613
2499.1800,0.001148
2501.0437,0.001028
2502.9074,0.001474
2504.7710,0.001782
2506.6347,0.001560
2508.4984,0.001368
2510.3620,0.001546
2512.2257,0.001751
2514.0894,0.001907
2515.9530,0.001889
2517.8167,0.001399
2519.6804,0.001172
2521.5440,0.001432
2523.4077,0.001463
2525.2714,0.001358
2527.1351,0.001710
2528.9987,0.001455
2530.8624,0.001130
2532.7261,0.001566
2534.5897,0.001835
2536.4534,0.001632
2538.3171,0.001465
2540.1807,0.001467
2542.0444,0.001772
2543.9081,0.001723
2545.7717,0.001682
2547.6354,0.001838
2549.4991,0.001913
2551.3627,0.001955
2553.2264,0.002051
2555.0901,0.002030
2556.9538,0.002106
2558.8174,0.002529
2560.6811,0.002600
2562.5448,0.002252
2564.4084,0.002273
2566.2721,0.002148
2568.1358,0.001937
2569.9994,0.002160
2571.8631,0.002236
2573.7268,0.001979
2575.5904,0.002067
2577.4541,0.002068
2579.3178,0.002054
2581.1815,0.002212
2583.0451,0.002386
2584.9088,0.002577
2586.7725,0.002557
2588.6361,0.002374
2590.4998,0.002390
2592.3635,0.002521
2594.2271,0.002651
2596.0908,0.002688
2597.9545,0.002724
2599.8181,0.002727
2601.6818,0.002965
2603.5455,0.003004
2605.4091,0.002835
2607.2728,0.002744
2609.1365,0.002699
2611.0002,0.002652
2612.8638,0.002899
2614.7275,0.003198
2616.5912,0.003215
2618.4548,0.003092
2620.3185,0.003335
2622.1822,0.003267
2624.0458,0.003142
2625.9095,0.003174
2627.7732,0.002992
2629.6368,0.002825
2631.5005,0.002899
2633.3642,0.003031
2635.2279,0.003353
2637.0915,0.003527
2638.9552,0.003492
2640.8189,0.003523
2642.6825,0.003661
2644.5462,0.003731
2646.4099,0.003686
2648.2735,0.003564
2650.1372,0.003662
2652.0009,0.003619
2653.8645,0.003549
2655.7282,0.003573
2657.5919,0.003738
2659.4555,0.003735
2661.3192,0.003557
2663.1829,0.003579
2665.0466,0.003741
2666.9102,0.003712
2668.7739,0.003652
2670.6376,0.003596
2672.5012,0.003753
2674.3649,0.003881
2676.2286,0.003788
2678.0922,0.003718
2679.9559,0.003897
2681.8196,0.003862
2683.6832,0.003717
2685.5469,0.003928
2687.4106,0.004199
2689.2742,0.004224
2691.1379,0.004271
2693.0016,0.004392
2694.8653,0.004502
2696.7289,0.004487
2698.5926,0.004452
2700.4563,0.004316
2702.3199,0.004441
2704.1836,0.004656
2706.0473,0.004639
2707.9109,0.004502
2709.7746,0.004565
2711.6383,0.004699
2713.5019,0.004743
2715.3656,0.004833
2717.2293,0.004992
2719.0930,0.004914
2720.9566,0.004987
2722.8203,0.005178
2724.6840,0.005202
2726.5476,0.005137
2728.4113,0.005220
2730.2750,0.005319
2732.1386,0.005374
2734.0023,0.005442
2735.8660,0.005589
2737.7296,0.005600
2739.5933,0.005585
2741.4570,0.005606
2743.3206,0.005700
2745.1843,0.005766
2747.0480,0.005958
2748.9117,0.006164
2750.7753,0.006162
2752.6390,0.006026
2754.5027,0.006083
2756.3663,0.006180
2758.2300,0.006327
2760.0937,0.006305
2761.9573,0.006268
2763.8210,0.006419
2765.6847,0.006707
2767.5483,0.006882
2769.4120,0.006930
2771.2757,0.006871
2773.1394,0.006852
2775.0030,0.006820
2776.8667,0.006890
2778.7304,0.006982
2780.5940,0.007025
2782.4577,0.006990
2784.3214,0.007162
2786.1850,0.007306
2788.0487,0.007359
2789.9124,0.007333
2791.7760,0.007406
2793.6397,0.007435
2795.5034,0.007360
2797.3670,0.007477
2799.2307,0.007760
2801.0944,0.007759
2802.9581,0.007818
2804.8217,0.008015
2806.6854,0.008127
2808.5491,0.008047
2810.4127,0.007969
2812.2764,0.008028
2814.1401,0.008315
2816.0037,0.008393
2817.8674,0.008208
2819.7311,0.008252
2821.5947,0.008646
2823.4584,0.008765
2825.3221,0.008694
2827.1857,0.008867
2829.0494,0.009113
2830.9131,0.009121
2832.7768,0.009434
2834.6404,0.009688
2836.5041,0.009601
2838.3678,0.009676
2840.2314,0.009930
2842.0951,0.009941
2843.9588,0.010208
2845.8224,0.010671
2847.6861,0.011073
2849.5498,0.011341
2851.4134,0.011484
2853.2771,0.011659
2855.1408,0.011808
2857.0045,0.011580
2858.8681,0.011620
2860.7318,0.011782
2862.5955,0.011790
2864.4591,0.011805
2866.3228,0.011887
2868.1865,0.012028
2870.0501,0.012235
2871.9138,0.012244
2873.7775,0.012306
2875.6411,0.012329
2877.5048,0.012331
2879.3685,0.012288
2881.2321,0.012246
2883.0958,0.012117
2884.9595,0.012023
2886.8232,0.011993
2888.6868,0.012146
2890.5505,0.012102
2892.4142,0.012322
2894.2778,0.012583
2896.1415,0.012564
2898.0052,0.012553
2899.8688,0.012679
2901.7325,0.012851
2903.5962,0.013165
2905.4598,0.013393
2907.3235,0.013547
2909.1872,0.013746
2911.0509,0.014012
2912.9145,0.014138
2914.7782,0.014221
2916.6419,0.014197
2918.5055,0.014541
2920.3692,0.014863
2922.2329,0.014830
2924.0965,0.014684
2925.9602,0.014683
2927.8239,0.014630
2929.6875,0.014624
2931.5512,0.014603
2933.4149,0.014624
2935.2785,0.014506
2937.1422,0.014202
2939.0059,0.013759
2940.8696,0.013763
2942.7332,0.014050
2944.5969,0.014024
2946.4606,0.013537
2948.3242,0.013428
2950.1879,0.013559
2952.0516,0.013581
2953.9152,0.013461
2955.7789,0.013318
2957.6426,0.013232
2959.5062,0.013439
2961.3699,0.013800
2963.2336,0.013917
2965.0972,0.013619
2966.9609,0.013289
2968.8246,0.012900
2970.6883,0.012580
2972.5519,0.012368
2974.4156,0.012084
2976.2793,0.011799
2978.1429,0.011866
2980.0066,0.011687
2981.8703,0.011656
2983.7339,0.011680
2985.5976,0.011307
2987.4613,0.011070
2989.3249,0.011061
2991.1886,0.011036
2993.0523,0.011080
2994.9160,0.010853
2996.7796,0.010706
2998.6433,0.010618
3000.5070,0.010486
3002.3706,0.010461
3004.2343,0.010727
3006.0980,0.010951
3007.9616,0.011083
3009.8253,0.011236
3011.6890,0.011390
3013.5526,0.011194
3015.4163,0.011069
3017.2800,0.011002
3019.1436,0.011259
3021.0073,0.011352
3022.8710,0.011191
3024.7347,0.011139
3026.5983,0.011139
3028.4620,0.011514
3030.3257,0.011928
3032.1893,0.011961
3034.0530,0.011895
3035.9167,0.011951
3037.7803,0.012013
3039.6440,0.012276
3041.5077,0.012627
3043.3713,0.012689
3045.2350,0.012649
3047.0987,0.012561
3048.9624,0.012610
3050.8260,0.012590
3052.6897,0.012753
3054.5534,0.013020
3056.4170,0.013050
3058.2807,0.012881
3060.1444,0.012968
3062.0080,0.013299
3063.8717,0.013498
3065.7354,0.013444
3067.5990,0.013350
3069.4627,0.013381
3071.3264,0.013524
3073.1900,0.013311
3075.0537,0.013081
3076.9174,0.013279
3078.7811,0.013518
3080.6447,0.013574
3082.5084,0.013305
3084.3721,0.013170
3086.2357,0.013150
3088.0994,0.012964
3089.9631,0.013349
3091.8267,0.013477
3093.6904,0.013315
3095.5541,0.013356
3097.4177,0.013269
3099.2814,0.013226
3101.1451,0.013111
3103.0087,0.012686
3104.8724,0.012595
3106.7361,0.012736
3108.5998,0.013065
3110.4634,0.013223
3112.3271,0.013241
3114.1908,0.013363
3116.0544,0.013530
3117.9181,0.013691
3119.7818,0.013513
3121.6454,0.013133
3123.5091,0.013066
3125.3728,0.013276
3127.2364,0.013596
3129.1001,0.013716
3130.9638,0.013649
3132.8275,0.013565
3134.6911,0.013914
3136.5548,0.014221
3138.4185,0.014132
3140.2821,0.014136
3142.1458,0.014025
3144.0095,0.013960
3145.8731,0.014190
3147.7368,0.014321
3149.6005,0.014632
3151.4641,0.015034
3153.3278,0.015370
3155.1915,0.015420
3157.0551,0.015024
3158.9188,0.014862
3160.7825,0.015291
3162.6462,0.015776
3164.5098,0.015729
3166.3735,0.015562
3168.2372,0.015980
3170.1008,0.016336
3171.9645,0.016317
3173.8282,0.016265
3175.6918,0.016154
3177.5555,0.016438
3179.4192,0.016702
3181.2828,0.016921
3183.1465,0.016934
3185.0102,0.017054
3186.8739,0.017343
3188.7375,0.016894
3190.6012,0.016843
3192.4649,0.017265
3194.3285,0.017444
3196.1922,0.017936
3198.0559,0.018031
3199.9195,0.017827
3201.7832,0.018002
3203.6469,0.017881
3205.5105,0.017810
3207.3742,0.017757
3209.2379,0.017376
3211.1015,0.017292
3212.9652,0.017434
3214.8289,0.017988
3216.6926,0.018275
3218.5562,0.018254
3220.4199,0.018470
3222.2836,0.018539
3224.1472,0.018547
3226.0109,0.018644
3227.8746,0.018957
3229.7382,0.019083
3231.6019,0.019015
3233.4656,0.018959
3235.3292,0.018796
3237.1929,0.018851
3239.0566,0.018821
3240.9202,0.019165
3242.7839,0.019669
3244.6476,0.019445
3246.5113,0.019182
3248.3749,0.019263
3250.2386,0.019652
3252.1023,0.019999
3253.9659,0.020074
3255.8296,0.019775
3257.6933,0.019736
3259.5569,0.019937
3261.4206,0.020074
3263.2843,0.020149
3265.1479,0.020291
3267.0116,0.020382
3268.8753,0.019990
3270.7390,0.020281
3272.6026,0.020505
3274.4663,0.020439
3276.3300,0.020648
3278.1936,0.020433
3280.0573,0.020041
3281.9210,0.020273
3283.7846,0.020165
3285.6483,0.020051
3287.5120,0.020079
3289.3756,0.020110
3291.2393,0.019892
3293.1030,0.019942
3294.9666,0.019888
3296.8303,0.019599
3298.6940,0.019208
3300.5577,0.018868
3302.4213,0.018973
3304.2850,0.018960
3306.1487,0.018754
3308.0123,0.018405
3309.8760,0.018148
3311.7397,0.017987
3313.6033,0.017763
3315.4670,0.017595
3317.3307,0.017457
3319.1943,0.017667
3321.0580,0.017614
3322.9217,0.017457
3324.7854,0.017561
3326.6490,0.017181
3328.5127,0.017121
3330.3764,0.017380
3332.2400,0.017013
3334.1037,0.016650
3335.9674,0.016586
3337.8310,0.016580
3339.6947,0.016714
3341.5584,0.016577
3343.4220,0.016400
3345.2857,0.016048
3347.1494,0.015934
3349.0130,0.015979
3350.8767,0.015754
3352.7404,0.015649
3354.6041,0.015566
3356.4677,0.015386
3358.3314,0.015086
3360.1951,0.015006
3362.0587,0.015102
3363.9224,0.015177
3365.7861,0.015106
3367.6497,0.014537
3369.5134,0.014120
3371.3771,0.014398
3373.2407,0.014230
3375.1044,0.013999
3376.9681,0.014332
3378.8317,0.014352
3380.6954,0.013977
3382.5591,0.013938
3384.4228,0.013856
3386.2864,0.013828
3388.1501,0.013418
3390.0138,0.012797
3391.8774,0.012842
3393.7411,0.013172
3395.6048,0.012945
3397.4684,0.012953
3399.3321,0.013283
3401.1958,0.013196
3403.0594,0.012349
3404.9231,0.011804
3406.7868,0.012016
3408.6505,0.012731
3410.5141,0.012560
3412.3778,0.012351
3414.2415,0.012252
3416.1051,0.012349
3417.9688,0.012622
3419.8325,0.012518
3421.6961,0.011821
3423.5598,0.011186
3425.4235,0.010512
3427.2871,0.010630
3429.1508,0.011235
3431.0145,0.011236
3432.8781,0.010914
3434.7418,0.010400
3436.6055,0.009880
3438.4692,0.010364
3440.3328,0.010520
3442.1965,0.010371
3444.0602,0.010289
3445.9238,0.010884
3447.7875,0.010610
3449.6512,0.010059
3451.5148,0.009309
3453.3785,0.008885
3455.2422,0.008954
3457.1058,0.008962
3458.9695,0.008670
3460.8332,0.008645
3462.6969,0.008734
3464.5605,0.008491
3466.4242,0.008292
3468.2879,0.008914
3470.1515,0.008818
3472.0152,0.008624
3473.8789,0.008598
3475.7425,0.008452
3477.6062,0.008029
3479.4699,0.007667
3481.3335,0.007340
3483.1972,0.007638
3485.0609,0.007941
3486.9245,0.007293
3488.7882,0.006894
3490.6519,0.007413
3492.5156,0.006867
3494.3792,0.006427
3496.2429,0.006415
3498.1066,0.006428
3499.9702,0.006481
3501.8339,0.006660
3503.6976,0.005994
3505.5612,0.005519
3507.4249,0.005932
3509.2886,0.005892
3511.1522,0.005089
3513.0159,0.005189
3514.8796,0.005368
3516.7432,0.004610
3518.6069,0.004027
3520.4706,0.004405
3522.3343,0.004980
3524.1979,0.005265
3526.0616,0.004151
3527.9253,0.002992
3529.7889,0.002358
3531.6526,0.002710
3533.5163,0.002841
3535.3799,0.003108
3537.2436,0.003927
3539.1073,0.004140
3540.9709,0.003311
3542.8346,0.002342
3544.6983,0.002188
3546.5620,0.002909
3548.4256,0.002748
3550.2893,0.001934
3552.1530,0.000937
3554.0166,0.001121
3555.8803,0.001322
3557.7440,0.000792
3559.6076,0.000620
3561.4713,0.000984
3563.3350,0.000325
3565.1986,-0.000007
3567.0623,-0.000260
3568.9260,-0.000301
3570.7896,0.000008
3572.6533,0.000050
3574.5170,-0.000534
3576.3807,-0.000672
3578.2443,-0.001403
3580.1080,-0.001138
3581.9717,-0.000665
3583.8353,-0.000867
3585.6990,-0.001194
3587.5627,-0.001080
3589.4263,-0.001758
3591.2900,-0.002167
3593.1537,-0.001985
3595.0173,-0.002057
3596.8810,-0.002508
3598.7447,-0.002677
3600.6084,-0.002866
3602.4720,-0.002745
3604.3357,-0.003075
3606.1994,-0.003317
3608.0630,-0.003401
3609.9267,-0.003288
3611.7904,-0.003428
3613.6540,-0.003453
3615.5177,-0.003738
3617.3814,-0.003843
3619.2450,-0.003984
3621.1087,-0.004462
3622.9724,-0.004810
3624.8360,-0.004190
3626.6997,-0.003524
3628.5634,-0.003653
3630.4271,-0.004848
3632.2907,-0.005754
3634.1544,-0.005349
3636.0181,-0.005254
3637.8817,-0.005359
3639.7454,-0.005272
3641.6091,-0.005324
3643.4727,-0.004907
3645.3364,-0.004375
3647.2001,-0.003861
3649.0637,-0.005122
3650.9274,-0.006731
3652.7911,-0.007237
3654.6547,-0.006580
3656.5184,-0.005966
3658.3821,-0.006289
3660.2458,-0.006516
3662.1094,-0.006517
3663.9731,-0.006649
3665.8368,-0.006376
3667.7004,-0.006430
3669.5641,-0.006257
3671.4278,-0.006308
3673.2914,-0.006564
3675.1551,-0.006335
3677.0188,-0.007382
3678.8824,-0.008143
3680.7461,-0.007293
3682.6098,-0.007408
3684.4735,-0.006749
3686.3371,-0.006830
3688.2008,-0.006901
3690.0645,-0.007626
3691.9281,-0.007965
3693.7918,-0.008064
3695.6555,-0.007767
3697.5191,-0.007179
3699.3828,-0.007106
3701.2465,-0.007440
3703.1101,-0.007777
3704.9738,-0.008160
3706.8375,-0.007424
3708.7011,-0.007167
3710.5648,-0.007373
3712.4285,-0.007712
3714.2922,-0.008060
3716.1558,-0.007873
3718.0195,-0.007009
3719.8832,-0.007230
3721.7468,-0.007206
3723.6105,-0.007198
3725.4742,-0.007538
3727.3378,-0.007953
3729.2015,-0.008018
3731.0652,-0.007514
3732.9288,-0.007268
3734.7925,-0.007752
3736.6562,-0.007588
3738.5199,-0.008385
3740.3835,-0.007774
3742.2472,-0.007355
3744.1109,-0.007469
3745.9745,-0.009188
3747.8382,-0.008725
3749.7019,-0.006692
3751.5655,-0.007694
3753.4292,-0.008228
3755.2929,-0.008217
3757.1565,-0.007717
3759.0202,-0.007894
3760.8839,-0.008281
3762.7475,-0.008302
3764.6112,-0.007631
3766.4749,-0.007564
3768.3386,-0.008134
3770.2022,-0.007948
3772.0659,-0.008246
3773.9296,-0.008033
3775.7932,-0.007770
3777.6569,-0.007523
3779.5206,-0.007315
3781.3842,-0.007696
3783.2479,-0.007913
3785.1116,-0.008059
3786.9752,-0.008188
3788.8389,-0.007833
3790.7026,-0.007910
3792.5662,-0.007924
3794.4299,-0.007936
3796.2936,-0.007352
3798.1573,-0.007072
3800.0209,-0.007010
3801.8846,-0.007129
3803.7483,-0.008298
3805.6119,-0.008411
3807.4756,-0.008633
3809.3393,-0.008879
3811.2029,-0.007787
3813.0666,-0.007567
3814.9303,-0.007220
3816.7939,-0.007011
3818.6576,-0.007514
3820.5213,-0.007024
3822.3850,-0.008093
3824.2486,-0.009028
3826.1123,-0.008240
3827.9760,-0.007916
3829.8396,-0.007773
3831.7033,-0.007582
3833.5670,-0.007874
3835.4306,-0.007837
3837.2943,-0.007581
3839.1580,-0.007713
3841.0216,-0.007807
3842.8853,-0.007781
3844.7490,-0.008009
3846.6126,-0.008147
3848.4763,-0.007592
3850.3400,-0.007094
3852.2037,-0.007020
3854.0673,-0.007519
3855.9310,-0.008828
3857.7947,-0.008739
3859.6583,-0.007944
3861.5220,-0.007207
3863.3857,-0.007172
3865.2493,-0.007473
3867.1130,-0.007957
3868.9767,-0.007204
3870.8403,-0.006934
3872.7040,-0.007908
3874.5677,-0.007791
3876.4314,-0.008107
3878.2950,-0.007236
3880.1587,-0.007310
3882.0224,-0.008123
3883.8860,-0.007907
3885.7497,-0.007116
3887.6134,-0.008055
3889.4770,-0.008194
3891.3407,-0.007726
3893.2044,-0.007611
3895.0680,-0.007894
3896.9317,-0.007970
3898.7954,-0.007609
3900.6590,-0.007132
3902.5227,-0.007423
3904.3864,-0.007869
3906.2501,-0.008160
3908.1137,-0.007509
3909.9774,-0.007266
3911.8411,-0.007439
3913.7047,-0.007577
3915.5684,-0.007011
3917.4321,-0.007047
3919.2957,-0.007600
3921.1594,-0.007858
3923.0231,-0.007623
3924.8867,-0.007608
3926.7504,-0.007838
3928.6141,-0.007282
3930.4777,-0.006971
3932.3414,-0.007600
3934.2051,-0.007780
3936.0688,-0.007596
3937.9324,-0.007308
3939.7961,-0.007537
3941.6598,-0.007376
3943.5234,-0.007497
3945.3871,-0.007646
3947.2508,-0.007619
3949.1144,-0.007666
3950.9781,-0.007778
3952.8418,-0.007619
3954.7054,-0.007647
3956.5691,-0.007406
3958.4328,-0.007399
3960.2965,-0.007645
3962.1601,-0.007792
3964.0238,-0.007602
3965.8875,-0.007844
3967.7511,-0.008107
3969.6148,-0.008034
3971.4785,-0.007834
3973.3421,-0.008125
3975.2058,-0.007849
3977.0695,-0.007671
3978.9331,-0.007857
3980.7968,-0.007598
3982.6605,-0.007027
3984.5241,-0.007198
3986.3878,-0.007398
3988.2515,-0.007789
3990.1152,-0.007943
3991.9788,-0.007793
3993.8425,-0.007629
3995.7062,-0.007842
3997.5698,-0.007830
3999.4335,-0.007931
