Wavenumber,Intensity
650.4205,0.005441
652.2841,0.006374
654.1478,0.006233
656.0115,0.005888
657.8751,0.006295
659.7388,0.006055
661.6025,0.006082
663.4661,0.006358
665.3298,0.006689
667.1935,0.006054
669.0571,0.005311
670.9208,0.005987
672.7845,0.006260
674.6481,0.006486
676.5118,0.006919
678.3755,0.006850
680.2392,0.006717
682.1028,0.007085
683.9665,0.007135
685.8302,0.006406
687.6938,0.006407
689.5575,0.007157
691.4212,0.007250
693.2848,0.007408
695.1485,0.007553
697.0122,0.007391
698.8758,0.007296
700.7395,0.007422
702.6032,0.007248
704.4669,0.007024
706.3305,0.007155
708.1942,0.007114
710.0579,0.007016
711.9215,0.006965
713.7852,0.006945
715.6489,0.007049
717.5125,0.007309
719.3762,0.007343
721.2399,0.007219
723.1035,0.007222
724.9672,0.007299
726.8309,0.007363
728.6945,0.007279
730.5582,0.006988
732.4219,0.006737
734.2856,0.006837
736.1492,0.006828
738.0129,0.006751
739.8766,0.007052
741.7402,0.007258
743.6039,0.007038
745.4676,0.006937
747.3312,0.006927
749.1949,0.006873
751.0586,0.006968
752.9222,0.007021
754.7859,0.007028
756.6496,0.006984
758.5132,0.006921
760.3769,0.006691
762.2406,0.006659
764.1043,0.006804
765.9679,0.006958
767.8316,0.007001
769.6953,0.006946
771.5589,0.006743
773.4226,0.006746
775.2863,0.006778
777.1499,0.006787
779.0136,0.006822
780.8773,0.006802
782.7409,0.006735
784.6046,0.006649
786.4683,0.006695
788.3320,0.006711
790.1956,0.006583
792.0593,0.006600
793.9230,0.006607
795.7866,0.006518
797.6503,0.006535
799.5140,0.006532
801.3776,0.006475
803.2413,0.006492
805.1050,0.006472
806.9686,0.006387
808.8323,0.006320
810.6960,0.006362
812.5596,0.006423
814.4233,0.006509
816.2870,0.006557
818.1507,0.006441
820.0143,0.006380
821.8780,0.006364
823.7417,0.006395
825.6053,0.006474
827.4690,0.006477
829.3327,0.006362
831.1963,0.006315
833.0600,0.006447
834.9237,0.006569
836.7873,0.006566
838.6510,0.006524
840.5147,0.006499
842.3784,0.006607
844.2420,0.006634
846.1057,0.006664
847.9694,0.006673
849.8330,0.006672
851.6967,0.006802
853.5604,0.006910
855.4240,0.006998
857.2877,0.007139
859.1514,0.007124
861.0150,0.007112
862.8787,0.007191
864.7424,0.007224
866.6060,0.007084
868.4697,0.007016
870.3334,0.007111
872.1971,0.007050
874.0607,0.007044
875.9244,0.007167
877.7881,0.007259
879.6517,0.007345
881.5154,0.007347
883.3791,0.007277
885.2427,0.007246
887.1064,0.007201
888.9701,0.007075
890.8337,0.007034
892.6974,0.006920
894.5611,0.006843
896.4247,0.006930
898.2884,0.006958
900.1521,0.006926
902.0158,0.006876
903.8794,0.006861
905.7431,0.006976
907.6068,0.007067
909.4704,0.007022
911.3341,0.006984
913.1978,0.007026
915.0614,0.007142
916.9251,0.007234
918.7888,0.007276
920.6524,0.007247
922.5161,0.007230
924.3798,0.007257
926.2435,0.007385
928.1071,0.007478
929.9708,0.007412
931.8345,0.007358
933.6981,0.007435
935.5618,0.007529
937.4255,0.007553
939.2891,0.007533
941.1528,0.007552
943.0165,0.007616
944.8801,0.007680
946.7438,0.007697
948.6075,0.007709
950.4711,0.007768
952.3348,0.007794
954.1985,0.007762
956.0622,0.007770
957.9258,0.007827
959.7895,0.007874
961.6532,0.007919
963.5168,0.007908
965.3805,0.007948
967.2442,0.008062
969.1078,0.008118
970.9715,0.008177
972.8352,0.008239
974.6988,0.008307
976.5625,0.008393
978.4262,0.008526
980.2899,0.008599
982.1535,0.008661
984.0172,0.008751
985.8809,0.008853
987.7445,0.008945
989.6082,0.009014
991.4719,0.009056
993.3355,0.009137
995.1992,0.009233
997.0629,0.009323
998.9265,0.009426
1000.7902,0.009512
1002.6539,0.009600
1004.5175,0.009710
1006.3812,0.009805
1008.2449,0.009871
1010.1086,0.010002
1011.9722,0.010181
1013.8359,0.010372
1015.6996,0.010527
1017.5632,0.010613
1019.4269,0.010755
1021.2906,0.010908
1023.1542,0.011013
1025.0179,0.011134
1026.8816,0.011295
1028.7452,0.011430
1030.6089,0.011543
1032.4726,0.011733
1034.3362,0.011893
1036.1999,0.011985
1038.0636,0.012106
1039.9273,0.012220
1041.7909,0.012290
1043.6546,0.012275
1045.5183,0.012248
1047.3819,0.012210
1049.2456,0.012103
1051.1093,0.011991
1052.9729,0.011892
1054.8366,0.011798
1056.7003,0.011720
1058.5639,0.011638
1060.4276,0.011551
1062.2913,0.011516
1064.1550,0.011528
1066.0186,0.011565
1067.8823,0.011648
1069.7460,0.011712
1071.6096,0.011749
1073.4733,0.011836
1075.3370,0.011912
1077.2006,0.012004
1079.0643,0.012120
1080.9280,0.012157
1082.7916,0.012167
1084.6553,0.012187
1086.5190,0.012134
1088.3826,0.012047
1090.2463,0.011929
1092.1100,0.011728
1093.9737,0.011516
1095.8373,0.011363
1097.7010,0.011247
1099.5647,0.011127
1101.4283,0.011007
1103.2920,0.010897
1105.1557,0.010789
1107.0193,0.010709
1108.8830,0.010631
1110.7467,0.010568
1112.6103,0.010515
1114.4740,0.010436
1116.3377,0.010336
1118.2014,0.010226
1120.0650,0.010153
1121.9287,0.010110
1123.7924,0.009982
1125.6560,0.009848
1127.5197,0.009717
1129.3834,0.009592
1131.2470,0.009477
1133.1107,0.009391
1134.9744,0.009312
1136.8380,0.009261
1138.7017,0.009240
1140.5654,0.009194
1142.4290,0.009126
1144.2927,0.009081
1146.1564,0.009019
1148.0201,0.008928
1149.8837,0.008848
1151.7474,0.008791
1153.6111,0.008764
1155.4747,0.008722
1157.3384,0.008684
1159.2021,0.008666
1161.0657,0.008652
1162.9294,0.008641
1164.7931,0.008637
1166.6567,0.008644
1168.5204,0.008612
1170.3841,0.008569
1172.2477,0.008583
1174.1114,0.008578
1175.9751,0.008545
1177.8388,0.008534
1179.7024,0.008534
1181.5661,0.008529
1183.4298,0.008522
1185.2934,0.008534
1187.1571,0.008560
1189.0208,0.008596
1190.8844,0.008643
1192.7481,0.008656
1194.6118,0.008687
1196.4754,0.008733
1198.3391,0.008723
1200.2028,0.008708
1202.0665,0.008720
1203.9301,0.008723
1205.7938,0.008733
1207.6575,0.008748
1209.5211,0.008752
1211.3848,0.008750
1213.2485,0.008766
1215.1121,0.008814
1216.9758,0.008825
1218.8395,0.008788
1220.7031,0.008788
1222.5668,0.008826
1224.4305,0.008849
1226.2941,0.008858
1228.1578,0.008874
1230.0215,0.008873
1231.8852,0.008879
1233.7488,0.008886
1235.6125,0.008912
1237.4762,0.008946
1239.3398,0.008958
1241.2035,0.008990
1243.0672,0.009001
1244.9308,0.008998
1246.7945,0.008975
1248.6582,0.008979
1250.5218,0.009002
1252.3855,0.009003
1254.2492,0.009028
1256.1129,0.009044
1257.9765,0.009029
1259.8402,0.009018
1261.7039,0.008998
1263.5675,0.008956
1265.4312,0.008931
1267.2949,0.008921
1269.1585,0.008938
1271.0222,0.008931
1272.8859,0.008898
1274.7495,0.008874
1276.6132,0.008901
1278.4769,0.008970
1280.3405,0.008994
1282.2042,0.008971
1284.0679,0.009014
1285.9316,0.009082
1287.7952,0.009125
1289.6589,0.009162
1291.5226,0.009186
1293.3862,0.009173
1295.2499,0.009199
1297.1136,0.009287
1298.9772,0.009304
1300.8409,0.009316
1302.7046,0.009377
1304.5682,0.009408
1306.4319,0.009402
1308.2956,0.009437
1310.1592,0.009482
1312.0229,0.009538
1313.8866,0.009604
1315.7503,0.009622
1317.6139,0.009703
1319.4776,0.009761
1321.3413,0.009769
1323.2049,0.009740
1325.0686,0.009704
1326.9323,0.009733
1328.7959,0.009773
1330.6596,0.009780
1332.5233,0.009828
1334.3869,0.009872
1336.2506,0.009880
1338.1143,0.009974
1339.9780,0.010255
1341.8416,0.010421
1343.7053,0.010377
1345.5690,0.010389
1347.4326,0.010401
1349.2963,0.010359
1351.1600,0.010342
1353.0236,0.010317
1354.8873,0.010269
1356.7510,0.010202
1358.6146,0.010099
1360.4783,0.010023
1362.3420,0.010149
1364.2056,0.010287
1366.0693,0.010166
1367.9330,0.010133
1369.7967,0.010146
1371.6603,0.010112
1373.5240,0.010234
1375.3877,0.010428
1377.2513,0.010432
1379.1150,0.010475
1380.9787,0.010467
1382.8423,0.010398
1384.7060,0.010432
1386.5697,0.010630
1388.4333,0.010777
1390.2970,0.010625
1392.1607,0.010538
1394.0244,0.010679
1395.8880,0.011064
1397.7517,0.011244
1399.6154,0.011342
1401.4790,0.011245
1403.3427,0.011158
1405.2064,0.011343
1407.0700,0.011377
1408.9337,0.011277
1410.7974,0.011272
1412.6610,0.011215
1414.5247,0.010982
1416.3884,0.010817
1418.2520,0.010929
1420.1157,0.011129
1421.9794,0.010874
1423.8431,0.010737
1425.7067,0.010656
1427.5704,0.010456
1429.4341,0.010450
1431.2977,0.010415
1433.1614,0.010213
1435.0251,0.010100
1436.8887,0.010457
1438.7524,0.010523
1440.6161,0.010221
1442.4797,0.010088
1444.3434,0.010022
1446.2071,0.010031
1448.0707,0.010147
1449.9344,0.010105
1451.7981,0.009851
1453.6618,0.009692
1455.5254,0.009808
1457.3891,0.010527
1459.2528,0.010452
1461.1164,0.010010
1462.9801,0.009780
1464.8438,0.009879
1466.7074,0.009743
1468.5711,0.009383
1470.4348,0.009148
1472.2984,0.009349
1474.1621,0.009573
1476.0258,0.009408
1477.8895,0.009308
1479.7531,0.009139
1481.6168,0.009017
1483.4805,0.008848
1485.3441,0.008729
1487.2078,0.008917
1489.0715,0.009233
1490.9351,0.009364
1492.7988,0.009072
1494.6625,0.008837
1496.5261,0.009112
1498.3898,0.009397
1500.2535,0.009199
1502.1171,0.008838
1503.9808,0.008623
1505.8445,0.009118
1507.7082,0.010396
1509.5718,0.010125
1511.4355,0.009693
1513.2992,0.009504
1515.1628,0.009360
1517.0265,0.009574
1518.8902,0.009575
1520.7538,0.009642
1522.6175,0.010201
1524.4812,0.010153
1526.3448,0.010162
1528.2085,0.010182
1530.0722,0.010102
1531.9359,0.010041
1533.7995,0.010302
1535.6632,0.010208
1537.5269,0.009782
1539.3905,0.010257
1541.2542,0.011632
1543.1179,0.011663
1544.9815,0.011522
1546.8452,0.011366
1548.7089,0.011241
1550.5725,0.011470
1552.4362,0.011307
1554.2999,0.011158
1556.1635,0.011228
1558.0272,0.011754
1559.8909,0.013422
1561.7546,0.012825
1563.6182,0.012063
1565.4819,0.011937
1567.3456,0.011969
1569.2092,0.012098
1571.0729,0.012212
1572.9366,0.011864
1574.8002,0.011824
1576.6639,0.012466
1578.5276,0.012493
1580.3912,0.012090
1582.2549,0.012035
1584.1186,0.012032
1585.9822,0.012046
1587.8459,0.012030
1589.7096,0.011960
1591.5733,0.011880
1593.4369,0.011875
1595.3006,0.011904
1597.1643,0.011858
1599.0279,0.011764
1600.8916,0.011765
1602.7553,0.011684
1604.6189,0.011560
1606.4826,0.011445
1608.3463,0.011330
1610.2099,0.011212
1612.0736,0.011114
1613.9373,0.010973
1615.8010,0.011038
1617.6646,0.011268
1619.5283,0.011058
1621.3920,0.010784
1623.2556,0.010954
1625.1193,0.011111
1626.9830,0.011035
1628.8466,0.011049
1630.7103,0.010856
1632.5740,0.010617
1634.4376,0.010750
1636.3013,0.011574
1638.1650,0.011623
1640.0286,0.011144
1641.8923,0.010813
1643.7560,0.010638
1645.6197,0.010717
1647.4833,0.011073
1649.3470,0.010820
1651.2107,0.010426
1653.0743,0.011372
1654.9380,0.012097
1656.8017,0.011227
1658.6653,0.010768
1660.5290,0.010578
1662.3927,0.010544
1664.2563,0.010529
1666.1200,0.010218
1667.9837,0.010024
1669.8474,0.010182
1671.7110,0.010052
1673.5747,0.009716
1675.4384,0.009776
1677.3020,0.009530
1679.1657,0.009002
1681.0294,0.008829
1682.8930,0.008760
1684.7567,0.009283
1686.6204,0.009088
1688.4840,0.008555
1690.3477,0.008204
1692.2114,0.007846
1694.0750,0.007473
1695.9387,0.007675
1697.8024,0.007821
1699.6661,0.007662
1701.5297,0.007970
1703.3934,0.007639
1705.2571,0.007476
1707.1207,0.007474
1708.9844,0.007250
1710.8481,0.007074
1712.7117,0.006897
1714.5754,0.006973
1716.4391,0.007279
1718.3027,0.007532
1720.1664,0.007358
1722.0301,0.006990
1723.8937,0.006968
1725.7574,0.006956
1727.6211,0.006782
1729.4848,0.006744
1731.3484,0.006862
1733.2121,0.006926
1735.0758,0.007287
1736.9394,0.007075
1738.8031,0.006888
1740.6668,0.007009
1742.5304,0.006924
1744.3941,0.006773
1746.2578,0.006780
1748.1214,0.006817
1749.9851,0.006891
1751.8488,0.006916
1753.7125,0.006749
1755.5761,0.006573
1757.4398,0.006703
1759.3035,0.006713
1761.1671,0.006659
1763.0308,0.006660
1764.8945,0.006428
1766.7581,0.006222
1768.6218,0.006352
1770.4855,0.006404
1772.3491,0.006562
1774.2128,0.006627
1776.0765,0.006447
1777.9401,0.006371
1779.8038,0.006374
1781.6675,0.006423
1783.5312,0.006296
1785.3948,0.006308
1787.2585,0.006296
1789.1222,0.006160
1790.9858,0.006219
1792.8495,0.006419
1794.7132,0.006334
1796.5768,0.006231
1798.4405,0.006167
1800.3042,0.006186
1802.1678,0.006267
1804.0315,0.006205
1805.8952,0.006069
1807.7589,0.005977
1809.6225,0.005935
1811.4862,0.005960
1813.3499,0.005929
1815.2135,0.005702
1817.0772,0.005560
1818.9409,0.005717
1820.8045,0.005843
1822.6682,0.005850
1824.5319,0.005904
1826.3955,0.005927
1828.2592,0.005745
1830.1229,0.005888
1831.9865,0.006048
1833.8502,0.005869
1835.7139,0.005756
1837.5776,0.005721
1839.4412,0.005615
1841.3049,0.005472
1843.1686,0.005586
1845.0322,0.005927
1846.8959,0.005882
1848.7596,0.005815
1850.6232,0.005773
1852.4869,0.005724
1854.3506,0.005713
1856.2142,0.005732
1858.0779,0.005681
1859.9416,0.005604
1861.8052,0.005623
1863.6689,0.005650
1865.5326,0.005664
1867.3963,0.005710
1869.2599,0.005866
1871.1236,0.005830
1872.9873,0.005621
1874.8509,0.005568
1876.7146,0.005707
1878.5783,0.005668
1880.4419,0.005631
1882.3056,0.005590
1884.1693,0.005511
1886.0329,0.005476
1887.8966,0.005446
1889.7603,0.005511
1891.6240,0.005551
1893.4876,0.005488
1895.3513,0.005531
1897.2150,0.005559
1899.0786,0.005614
1900.9423,0.005599
1902.8060,0.005649
1904.6696,0.005677
1906.5333,0.005624
1908.3970,0.005475
1910.2606,0.005440
1912.1243,0.005362
1913.9880,0.005347
1915.8516,0.005302
1917.7153,0.005463
1919.5790,0.005550
1921.4427,0.005457
1923.3063,0.005166
1925.1700,0.005081
1927.0337,0.005067
1928.8973,0.005092
1930.7610,0.004997
1932.6247,0.005053
1934.4883,0.005144
1936.3520,0.005239
1938.2157,0.005220
1940.0793,0.004747
1941.9430,0.004570
1943.8067,0.004905
1945.6704,0.004938
1947.5340,0.004943
1949.3977,0.005050
1951.2614,0.004931
1953.1250,0.004321
1954.9887,0.004024
1956.8524,0.003968
1958.7160,0.003998
1960.5797,0.004188
1962.4434,0.004686
1964.3070,0.005053
1966.1707,0.004991
1968.0344,0.004965
1969.8980,0.005032
1971.7617,0.005003
1973.6254,0.004445
1975.4891,0.004249
1977.3527,0.005359
1979.2164,0.006433
1981.0801,0.006338
1982.9437,0.005719
1984.8074,0.006030
1986.6711,0.006138
1988.5347,0.005760
1990.3984,0.005538
1992.2621,0.005548
1994.1257,0.005532
1995.9894,0.005606
1997.8531,0.005383
1999.7167,0.005014
2001.5804,0.004832
2003.4441,0.004739
2005.3078,0.004658
2007.1714,0.004683
2009.0351,0.004890
2010.8988,0.005032
2012.7624,0.005382
2014.6261,0.005720
2016.4898,0.005579
2018.3534,0.005393
2020.2171,0.005003
2022.0808,0.005164
2023.9444,0.005230
2025.8081,0.005087
2027.6718,0.005247
2029.5355,0.005228
2031.3991,0.005023
2033.2628,0.005371
2035.1265,0.006221
2036.9901,0.006766
2038.8538,0.006913
2040.7175,0.006648
2042.5811,0.006410
2044.4448,0.006449
2046.3085,0.006449
2048.1721,0.006577
2050.0358,0.007222
2051.8995,0.007235
2053.7631,0.006710
2055.6268,0.006483
2057.4905,0.006457
2059.3542,0.006410
2061.2178,0.006415
2063.0815,0.006460
2064.9452,0.006326
2066.8088,0.006624
2068.6725,0.006830
2070.5362,0.006652
2072.3998,0.006601
2074.2635,0.006867
2076.1272,0.006907
2077.9908,0.006647
2079.8545,0.006575
2081.7182,0.006576
2083.5819,0.006398
2085.4455,0.006264
2087.3092,0.006115
2089.1729,0.006073
2091.0365,0.006079
2092.9002,0.005933
2094.7639,0.005965
2096.6275,0.006140
2098.4912,0.006282
2100.3549,0.006321
2102.2185,0.006298
2104.0822,0.006208
2105.9459,0.006054
2107.8095,0.006067
2109.6732,0.006389
2111.5369,0.006609
2113.4006,0.006391
2115.2642,0.006184
2117.1279,0.005993
2118.9916,0.005757
2120.8552,0.005669
2122.7189,0.005500
2124.5826,0.005251
2126.4462,0.004864
2128.3099,0.004676
2130.1736,0.004520
2132.0372,0.004383
2133.9009,0.004183
2135.7646,0.004239
2137.6282,0.004545
2139.4919,0.004325
2141.3556,0.004652
2143.2193,0.005059
2145.0829,0.004563
2146.9466,0.004141
2148.8103,0.004099
2150.6739,0.003986
2152.5376,0.004229
2154.4013,0.004143
2156.2649,0.003751
2158.1286,0.003964
2159.9923,0.005189
2161.8559,0.007108
2163.7196,0.007425
2165.5833,0.006589
2167.4470,0.006530
2169.3106,0.006747
2171.1743,0.006503
2173.0380,0.005695
2174.9016,0.004914
2176.7653,0.005498
2178.6290,0.006118
2180.4926,0.005829
2182.3563,0.006301
2184.2200,0.006566
2186.0836,0.006404
2187.9473,0.006748
2189.8110,0.006509
2191.6746,0.006139
2193.5383,0.006436
2195.4020,0.006520
2197.2657,0.006262
2199.1293,0.005965
2200.9930,0.006221
2202.8567,0.006517
2204.7203,0.006342
2206.5840,0.006135
2208.4477,0.006453
2210.3113,0.006797
2212.1750,0.006640
2214.0387,0.006506
2215.9023,0.006014
2217.7660,0.005958
2219.6297,0.006441
2221.4934,0.006528
2223.3570,0.006582
2225.2207,0.006541
2227.0844,0.006351
2228.9480,0.006504
2230.8117,0.006632
2232.6754,0.006453
2234.5390,0.006325
2236.4027,0.006266
2238.2664,0.006439
2240.1300,0.006459
2241.9937,0.006314
2243.8574,0.006185
2245.7210,0.006172
2247.5847,0.006410
2249.4484,0.006667
2251.3121,0.006579
2253.1757,0.006471
2255.0394,0.006471
2256.9031,0.006477
2258.7667,0.006531
2260.6304,0.006664
2262.4941,0.006541
2264.3577,0.006430
2266.2214,0.006716
2268.0851,0.006985
2269.9487,0.006816
2271.8124,0.006633
2273.6761,0.006791
2275.5397,0.007005
2277.4034,0.007061
2279.2671,0.007185
2281.1308,0.007163
2282.9944,0.007158
2284.8581,0.007198
2286.7218,0.007192
2288.5854,0.007148
2290.4491,0.007093
2292.3128,0.007073
2294.1764,0.006986
2296.0401,0.006886
2297.9038,0.006783
2299.7674,0.006768
2301.6311,0.006868
2303.4948,0.006951
2305.3585,0.006906
2307.2221,0.006951
2309.0858,0.006787
2310.9495,0.006688
2312.8131,0.007066
2314.6768,0.007202
2316.5405,0.007125
2318.4041,0.007319
2320.2678,0.007462
2322.1315,0.007515
2323.9951,0.007857
2325.8588,0.007719
2327.7225,0.006995
2329.5861,0.006342
2331.4498,0.006268
2333.3135,0.006428
2335.1772,0.006573
2337.0408,0.006701
2338.9045,0.006778
2340.7682,0.006958
2342.6318,0.007220
2344.4955,0.007169
2346.3592,0.006992
2348.2228,0.006460
2350.0865,0.005957
2351.9502,0.005988
2353.8138,0.006281
2355.6775,0.006305
2357.5412,0.005956
2359.4049,0.005939
2361.2685,0.006325
2363.1322,0.006534
2364.9959,0.006449
2366.8595,0.006441
2368.7232,0.006680
2370.5869,0.006804
2372.4505,0.006760
2374.3142,0.006576
2376.1779,0.006332
2378.0415,0.006294
2379.9052,0.006202
2381.7689,0.005930
2383.6325,0.005757
2385.4962,0.005673
2387.3599,0.005561
2389.2236,0.005494
2391.0872,0.005580
2392.9509,0.005701
2394.8146,0.005667
2396.6782,0.005472
2398.5419,0.005413
2400.4056,0.005484
2402.2692,0.005432
2404.1329,0.005427
2405.9966,0.005562
2407.8602,0.005720
2409.7239,0.005870
2411.5876,0.005816
2413.4512,0.005709
2415.3149,0.005747
2417.1786,0.005747
2419.0423,0.005618
2420.9059,0.005685
2422.7696,0.005713
2424.6333,0.005664
2426.4969,0.005758
2428.3606,0.005870
2430.2243,0.005850
2432.0879,0.005893
2433.9516,0.005888
2435.8153,0.005786
2437.6789,0.005819
2439.5426,0.005904
2441.4063,0.005915
2443.2700,0.005969
2445.1336,0.005968
2446.9973,0.005945
2448.8610,0.006059
2450.7246,0.006175
2452.5883,0.006131
2454.4520,0.006007
2456.3156,0.005973
2458.1793,0.005907
2460.0430,0.005912
2461.9066,0.005823
2463.7703,0.005721
2465.6340,0.005851
2467.4976,0.005870
2469.3613,0.005820
2471.2250,0.005856
2473.0887,0.005780
2474.9523,0.005739
2476.8160,0.005791
2478.6797,0.005775
2480.5433,0.005839
2482.4070,0.005790
2484.2707,0.005864
2486.1343,0.005953
2487.9980,0.005852
2489.8617,0.005741
2491.7253,0.005645
2493.5890,0.005769
2495.4527,0.005877
2497.3164,0.005923
2499.1800,0.006015
2501.0437,0.005918
2502.9074,0.005800
2504.7710,0.005752
2506.6347,0.005783
2508.4984,0.005841
2510.3620,0.005934
2512.2257,0.005924
2514.0894,0.005952
2515.9530,0.006070
2517.8167,0.006088
2519.6804,0.006053
2521.5440,0.006132
2523.4077,0.006103
2525.2714,0.006046
2527.1351,0.005958
2528.9987,0.006034
2530.8624,0.006116
2532.7261,0.006074
2534.5897,0.006050
2536.4534,0.006065
2538.3171,0.006075
2540.1807,0.006045
2542.0444,0.006000
2543.9081,0.005938
2545.7717,0.005919
2547.6354,0.006059
2549.4991,0.006099
2551.3627,0.005996
2553.2264,0.005997
2555.0901,0.006119
2556.9538,0.006142
2558.8174,0.006122
2560.6811,0.006132
2562.5448,0.006120
2564.4084,0.006026
2566.2721,0.006012
2568.1358,0.006117
2569.9994,0.006277
2571.8631,0.006280
2573.7268,0.006228
2575.5904,0.006298
2577.4541,0.006297
2579.3178,0.006235
2581.1815,0.006332
2583.0451,0.006398
2584.9088,0.006409
2586.7725,0.006315
2588.6361,0.006269
2590.4998,0.006309
2592.3635,0.006279
2594.2271,0.006264
2596.0908,0.006299
2597.9545,0.006356
2599.8181,0.006382
2601.6818,0.006406
2603.5455,0.006457
2605.4091,0.006457
2607.2728,0.006454
2609.1365,0.006435
2611.0002,0.006405
2612.8638,0.006458
2614.7275,0.006516
2616.5912,0.006519
2618.4548,0.006543
2620.3185,0.006512
2622.1822,0.006578
2624.0458,0.006633
2625.9095,0.006581
2627.7732,0.006591
2629.6368,0.006625
2631.5005,0.006507
2633.3642,0.006479
2635.2279,0.006593
2637.0915,0.006622
2638.9552,0.006618
2640.8189,0.006633
2642.6825,0.006597
2644.5462,0.006539
2646.4099,0.006518
2648.2735,0.006523
2650.1372,0.006489
2652.0009,0.006440
2653.8645,0.006383
2655.7282,0.006370
2657.5919,0.006362
2659.4555,0.006299
2661.3192,0.006198
2663.1829,0.006052
2665.0466,0.005928
2666.9102,0.005892
2668.7739,0.005934
2670.6376,0.005930
2672.5012,0.005904
2674.3649,0.005896
2676.2286,0.005855
2678.0922,0.005858
2679.9559,0.005938
2681.8196,0.005940
2683.6832,0.005854
2685.5469,0.005851
2687.4106,0.005913
2689.2742,0.005945
2691.1379,0.005943
2693.0016,0.005909
2694.8653,0.005941
2696.7289,0.005944
2698.5926,0.005890
2700.4563,0.005879
2702.3199,0.005911
2704.1836,0.005916
2706.0473,0.005921
2707.9109,0.005950
2709.7746,0.005937
2711.6383,0.005923
2713.5019,0.005937
2715.3656,0.005918
2717.2293,0.005939
2719.0930,0.006001
2720.9566,0.005975
2722.8203,0.005914
2724.6840,0.005962
2726.5476,0.006001
2728.4113,0.005975
2730.2750,0.005977
2732.1386,0.005998
2734.0023,0.006016
2735.8660,0.006007
2737.7296,0.005970
2739.5933,0.005981
2741.4570,0.005965
2743.3206,0.005914
2745.1843,0.005901
2747.0480,0.005909
2748.9117,0.005929
2750.7753,0.005918
2752.6390,0.005956
2754.5027,0.005999
2756.3663,0.005988
2758.2300,0.005933
2760.0937,0.005929
2761.9573,0.005945
2763.8210,0.005986
2765.6847,0.006045
2767.5483,0.006041
2769.4120,0.006035
2771.2757,0.006064
2773.1394,0.006035
2775.0030,0.005984
2776.8667,0.005939
2778.7304,0.005989
2780.5940,0.006072
2782.4577,0.006074
2784.3214,0.006068
2786.1850,0.006141
2788.0487,0.006181
2789.9124,0.006109
2791.7760,0.006104
2793.6397,0.006144
2795.5034,0.006140
2797.3670,0.006141
2799.2307,0.006168
2801.0944,0.006216
2802.9581,0.006199
2804.8217,0.006230
2806.6854,0.006230
2808.5491,0.006219
2810.4127,0.006285
2812.2764,0.006333
2814.1401,0.006314
2816.0037,0.006329
2817.8674,0.006336
2819.7311,0.006384
2821.5947,0.006362
2823.4584,0.006279
2825.3221,0.006258
2827.1857,0.006384
2829.0494,0.006514
2830.9131,0.006510
2832.7768,0.006442
2834.6404,0.006532
2836.5041,0.006600
2838.3678,0.006617
2840.2314,0.006668
2842.0951,0.006729
2843.9588,0.006745
2845.8224,0.006797
2847.6861,0.006875
2849.5498,0.006992
2851.4134,0.007052
2853.2771,0.007073
2855.1408,0.007071
2857.0045,0.007035
2858.8681,0.006967
2860.7318,0.006952
2862.5955,0.007061
2864.4591,0.007142
2866.3228,0.007068
2868.1865,0.007041
2870.0501,0.007119
2871.9138,0.007173
2873.7775,0.007190
2875.6411,0.007157
2877.5048,0.007084
2879.3685,0.007076
2881.2321,0.007052
2883.0958,0.007064
2884.9595,0.007074
2886.8232,0.007097
2888.6868,0.007096
2890.5505,0.007040
2892.4142,0.007022
2894.2778,0.007035
2896.1415,0.007013
2898.0052,0.007027
2899.8688,0.007133
2901.7325,0.007233
2903.5962,0.007304
2905.4598,0.007322
2907.3235,0.007436
2909.1872,0.007491
2911.0509,0.007429
2912.9145,0.007449
2914.7782,0.007484
2916.6419,0.007538
2918.5055,0.007663
2920.3692,0.007765
2922.2329,0.007914
2924.0965,0.007906
2925.9602,0.007786
2927.8239,0.007824
2929.6875,0.007862
2931.5512,0.007787
2933.4149,0.007668
2935.2785,0.007689
2937.1422,0.007693
2939.0059,0.007617
2940.8696,0.007467
2942.7332,0.007365
2944.5969,0.007342
2946.4606,0.007275
2948.3242,0.007288
2950.1879,0.007384
2952.0516,0.007288
2953.9152,0.007276
2955.7789,0.007237
2957.6426,0.007165
2959.5062,0.007194
2961.3699,0.007134
2963.2336,0.006987
2965.0972,0.006950
2966.9609,0.006992
2968.8246,0.006994
2970.6883,0.006897
2972.5519,0.006750
2974.4156,0.006742
2976.2793,0.006727
2978.1429,0.006651
2980.0066,0.006585
2981.8703,0.006507
2983.7339,0.006441
2985.5976,0.006366
2987.4613,0.006390
2989.3249,0.006461
2991.1886,0.006510
2993.0523,0.006503
2994.9160,0.006523
2996.7796,0.006607
2998.6433,0.006567
3000.5070,0.006480
3002.3706,0.006476
3004.2343,0.006542
3006.0980,0.006563
3007.9616,0.006525
3009.8253,0.006573
3011.6890,0.006587
3013.5526,0.006620
3015.4163,0.006560
3017.2800,0.006452
3019.1436,0.006449
3021.0073,0.006481
3022.8710,0.006436
3024.7347,0.006482
3026.5983,0.006532
3028.4620,0.006618
3030.3257,0.006665
3032.1893,0.006701
3034.0530,0.006652
3035.9167,0.006714
3037.7803,0.006741
3039.6440,0.006745
3041.5077,0.006808
3043.3713,0.006774
3045.2350,0.006761
3047.0987,0.006762
3048.9624,0.006810
3050.8260,0.006845
3052.6897,0.006868
3054.5534,0.006832
3056.4170,0.006843
3058.2807,0.006806
3060.1444,0.006771
3062.0080,0.006856
3063.8717,0.006884
3065.7354,0.006953
3067.5990,0.007084
3069.4627,0.007006
3071.3264,0.006898
3073.1900,0.007014
3075.0537,0.007101
3076.9174,0.007014
3078.7811,0.007002
3080.6447,0.007107
3082.5084,0.007073
3084.3721,0.006977
3086.2357,0.006976
3088.0994,0.007093
3089.9631,0.007174
3091.8267,0.007202
3093.6904,0.007248
3095.5541,0.007226
3097.4177,0.007237
3099.2814,0.007244
3101.1451,0.007314
3103.0087,0.007337
3104.8724,0.007239
3106.7361,0.007177
3108.5998,0.007301
3110.4634,0.007474
3112.3271,0.007441
3114.1908,0.007413
3116.0544,0.007550
3117.9181,0.007558
3119.7818,0.007435
3121.6454,0.007441
3123.5091,0.007606
3125.3728,0.007730
3127.2364,0.007751
3129.1001,0.007695
3130.9638,0.007669
3132.8275,0.007687
3134.6911,0.007748
3136.5548,0.007789
3138.4185,0.007782
3140.2821,0.007800
3142.1458,0.007867
3144.0095,0.007889
3145.8731,0.007927
3147.7368,0.008045
3149.6005,0.008034
3151.4641,0.007981
3153.3278,0.007967
3155.1915,0.008064
3157.0551,0.008128
3158.9188,0.008292
3160.7825,0.008239
3162.6462,0.008202
3164.5098,0.008327
3166.3735,0.008315
3168.2372,0.008297
3170.1008,0.008329
3171.9645,0.008411
3173.8282,0.008446
3175.6918,0.008410
3177.5555,0.008494
3179.4192,0.008554
3181.2828,0.008499
3183.1465,0.008505
3185.0102,0.008514
3186.8739,0.008578
3188.7375,0.008631
3190.6012,0.008702
3192.4649,0.008767
3194.3285,0.008803
3196.1922,0.008820
3198.0559,0.008809
3199.9195,0.008773
3201.7832,0.008732
3203.6469,0.008843
3205.5105,0.008987
3207.3742,0.009022
3209.2379,0.008982
3211.1015,0.008905
3212.9652,0.008874
3214.8289,0.008910
3216.6926,0.008978
3218.5562,0.009165
3220.4199,0.009125
3222.2836,0.009039
3224.1472,0.009064
3226.0109,0.009154
3227.8746,0.009181
3229.7382,0.009215
3231.6019,0.009251
3233.4656,0.009236
3235.3292,0.009284
3237.1929,0.009369
3239.0566,0.009466
3240.9202,0.009500
3242.7839,0.009440
3244.6476,0.009396
3246.5113,0.009549
3248.3749,0.009629
3250.2386,0.009583
3252.1023,0.009777
3253.9659,0.009856
3255.8296,0.009670
3257.6933,0.009657
3259.5569,0.009718
3261.4206,0.009782
3263.2843,0.009819
3265.1479,0.009726
3267.0116,0.009692
3268.8753,0.009755
3270.7390,0.009799
3272.6026,0.009850
3274.4663,0.009907
3276.3300,0.009841
3278.1936,0.009792
3280.0573,0.009839
3281.9210,0.009876
3283.7846,0.009964
3285.6483,0.009798
3287.5120,0.009703
3289.3756,0.009875
3291.2393,0.009907
3293.1030,0.009888
3294.9666,0.009842
3296.8303,0.009815
3298.6940,0.010050
3300.5577,0.010012
3302.4213,0.009813
3304.2850,0.009791
3306.1487,0.009867
3308.0123,0.009959
3309.8760,0.009905
3311.7397,0.009835
3313.6033,0.009888
3315.4670,0.009993
3317.3307,0.010015
3319.1943,0.010014
3321.0580,0.009821
3322.9217,0.009791
3324.7854,0.009920
3326.6490,0.009879
3328.5127,0.009861
3330.3764,0.009872
3332.2400,0.009855
3334.1037,0.009757
3335.9674,0.009767
3337.8310,0.009913
3339.6947,0.010008
3341.5584,0.010069
3343.4220,0.010016
3345.2857,0.009990
3347.1494,0.009992
3349.0130,0.009878
3350.8767,0.009862
3352.7404,0.009999
3354.6041,0.009921
3356.4677,0.009761
3358.3314,0.009757
3360.1951,0.009863
3362.0587,0.009909
3363.9224,0.010016
3365.7861,0.010059
3367.6497,0.009964
3369.5134,0.009820
3371.3771,0.009741
3373.2407,0.009792
3375.1044,0.009813
3376.9681,0.009771
3378.8317,0.009802
3380.6954,0.009787
3382.5591,0.009787
3384.4228,0.009710
3386.2864,0.009580
3388.1501,0.009455
3390.0138,0.009514
3391.8774,0.009558
3393.7411,0.009540
3395.6048,0.009511
3397.4684,0.009533
3399.3321,0.009611
3401.1958,0.009659
3403.0594,0.009599
3404.9231,0.009445
3406.7868,0.009374
3408.6505,0.009522
3410.5141,0.009599
3412.3778,0.009528
3414.2415,0.009270
3416.1051,0.009193
3417.9688,0.009296
3419.8325,0.009269
3421.6961,0.009195
3423.5598,0.009222
3425.4235,0.009387
3427.2871,0.009358
3429.1508,0.009132
3431.0145,0.009035
3432.8781,0.009035
3434.7418,0.008915
3436.6055,0.008725
3438.4692,0.008694
3440.3328,0.008686
3442.1965,0.008783
3444.0602,0.008959
3445.9238,0.008861
3447.7875,0.008614
3449.6512,0.008658
3451.5148,0.008685
3453.3785,0.008631
3455.2422,0.008673
3457.1058,0.008674
3458.9695,0.008713
3460.8332,0.008487
3462.6969,0.008178
3464.5605,0.008213
3466.4242,0.008408
3468.2879,0.008406
3470.1515,0.008223
3472.0152,0.008148
3473.8789,0.008095
3475.7425,0.008006
3477.6062,0.008027
3479.4699,0.008080
3481.3335,0.008088
3483.1972,0.007986
3485.0609,0.007951
3486.9245,0.007851
3488.7882,0.007748
3490.6519,0.007729
3492.5156,0.007674
3494.3792,0.007734
3496.2429,0.007775
3498.1066,0.007995
3499.9702,0.008002
3501.8339,0.007757
3503.6976,0.007734
3505.5612,0.007742
3507.4249,0.007555
3509.2886,0.007469
3511.1522,0.007426
3513.0159,0.007261
3514.8796,0.007185
3516.7432,0.007211
3518.6069,0.007056
3520.4706,0.007075
3522.3343,0.007069
3524.1979,0.007058
3526.0616,0.007190
3527.9253,0.007204
3529.7889,0.007077
3531.6526,0.006973
3533.5163,0.006888
3535.3799,0.006855
3537.2436,0.006911
3539.1073,0.006731
3540.9709,0.006475
3542.8346,0.006509
3544.6983,0.006507
3546.5620,0.006565
3548.4256,0.006540
3550.2893,0.006324
3552.1530,0.006314
3554.0166,0.006441
3555.8803,0.006125
3557.7440,0.005930
3559.6076,0.005904
3561.4713,0.006017
3563.3350,0.006279
3565.1986,0.006339
3567.0623,0.006553
3568.9260,0.006717
3570.7896,0.006407
3572.6533,0.005990
3574.5170,0.005797
3576.3807,0.005771
3578.2443,0.005655
3580.1080,0.005520
3581.9717,0.005478
3583.8353,0.005590
3585.6990,0.005698
3587.5627,0.005803
3589.4263,0.005896
3591.2900,0.005814
3593.1537,0.005672
3595.0173,0.005631
3596.8810,0.005665
3598.7447,0.005642
3600.6084,0.005646
3602.4720,0.005529
3604.3357,0.005238
3606.1994,0.005163
3608.0630,0.005387
3609.9267,0.005521
3611.7904,0.005374
3613.6540,0.005453
3615.5177,0.005508
3617.3814,0.005235
3619.2450,0.005198
3621.1087,0.005397
3622.9724,0.004976
3624.8360,0.004575
3626.6997,0.004822
3628.5634,0.005406
3630.4271,0.005878
3632.2907,0.005651
3634.1544,0.005343
3636.0181,0.005059
3637.8817,0.004612
3639.7454,0.004499
3641.6091,0.004457
3643.4727,0.004369
3645.3364,0.004440
3647.2001,0.004630
3649.0637,0.005225
3650.9274,0.005627
3652.7911,0.005346
3654.6547,0.004897
3656.5184,0.004613
3658.3821,0.004688
3660.2458,0.004553
3662.1094,0.004328
3663.9731,0.004145
3665.8368,0.003994
3667.7004,0.003958
3669.5641,0.004442
3671.4278,0.004929
3673.2914,0.004722
3675.1551,0.004783
3677.0188,0.005182
3678.8824,0.004759
3680.7461,0.004263
3682.6098,0.004127
3684.4735,0.004208
3686.3371,0.004295
3688.2008,0.004284
3690.0645,0.004517
3691.9281,0.004730
3693.7918,0.004635
3695.6555,0.004316
3697.5191,0.004187
3699.3828,0.004289
3701.2465,0.004362
3703.1101,0.004369
3704.9738,0.004149
3706.8375,0.003963
3708.7011,0.004225
3710.5648,0.004637
3712.4285,0.004842
3714.2922,0.004792
3716.1558,0.004309
3718.0195,0.004030
3719.8832,0.004064
3721.7468,0.003987
3723.6105,0.003987
3725.4742,0.004170
3727.3378,0.004187
3729.2015,0.004130
3731.0652,0.003952
3732.9288,0.004239
3734.7925,0.004816
3736.6562,0.005042
3738.5199,0.004738
3740.3835,0.004160
3742.2472,0.003961
3744.1109,0.004229
3745.9745,0.004972
3747.8382,0.005137
3749.7019,0.004618
3751.5655,0.004820
3753.4292,0.005122
3755.2929,0.004805
3757.1565,0.004280
3759.0202,0.004258
3760.8839,0.004322
3762.7475,0.004303
3764.6112,0.004176
3766.4749,0.004163
3768.3386,0.004163
3770.2022,0.004105
3772.0659,0.004314
3773.9296,0.004221
3775.7932,0.003994
3777.6569,0.004088
3779.5206,0.004414
3781.3842,0.004494
3783.2479,0.004206
3785.1116,0.004184
3786.9752,0.004237
3788.8389,0.004092
3790.7026,0.003885
3792.5662,0.003752
3794.4299,0.003803
3796.2936,0.003919
3798.1573,0.004136
3800.0209,0.004146
3801.8846,0.004210
3803.7483,0.004486
3805.6119,0.004202
3807.4756,0.004139
3809.3393,0.004226
3811.2029,0.003850
3813.0666,0.003456
3814.9303,0.003640
3816.7939,0.004225
3818.6576,0.004595
3820.5213,0.004408
3822.3850,0.004441
3824.2486,0.004293
3826.1123,0.003980
3827.9760,0.003875
3829.8396,0.003708
3831.7033,0.003689
3833.5670,0.004080
3835.4306,0.004174
3837.2943,0.004144
3839.1580,0.004347
3841.0216,0.004467
3842.8853,0.004183
3844.7490,0.003920
3846.6126,0.003722
3848.4763,0.003530
3850.3400,0.003561
3852.2037,0.004013
3854.0673,0.005000
3855.9310,0.005195
3857.7947,0.004304
3859.6583,0.003707
3861.5220,0.003570
3863.3857,0.003891
3865.2493,0.004213
3867.1130,0.004163
3868.9767,0.004000
3870.8403,0.004330
3872.7040,0.004519
3874.5677,0.004199
3876.4314,0.004050
3878.2950,0.003837
3880.1587,0.003859
3882.0224,0.004162
3883.8860,0.004161
3885.7497,0.003968
3887.6134,0.004062
3889.4770,0.003863
3891.3407,0.003661
3893.2044,0.003814
3895.0680,0.003828
3896.9317,0.003823
3898.7954,0.003985
3900.6590,0.004333
3902.5227,0.004458
3904.3864,0.004440
3906.2501,0.004460
3908.1137,0.004141
3909.9774,0.003698
3911.8411,0.003607
3913.7047,0.003637
3915.5684,0.003684
3917.4321,0.003905
3919.2957,0.004116
3921.1594,0.004037
3923.0231,0.003951
3924.8867,0.003989
3926.7504,0.003983
3928.6141,0.003898
3930.4777,0.003777
3932.3414,0.003938
3934.2051,0.004244
3936.0688,0.004179
3937.9324,0.003882
3939.7961,0.003892
3941.6598,0.004053
3943.5234,0.004080
3945.3871,0.003900
3947.2508,0.003709
3949.1144,0.003726
3950.9781,0.003874
3952.8418,0.003881
3954.7054,0.003864
3956.5691,0.003986
3958.4328,0.003945
3960.2965,0.003967
3962.1601,0.003941
3964.0238,0.003889
3965.8875,0.003756
3967.7511,0.003519
3969.6148,0.003647
3971.4785,0.003876
3973.3421,0.003809
3975.2058,0.003795
3977.0695,0.003836
3978.9331,0.003900
3980.7968,0.003920
3982.6605,0.003843
3984.5241,0.003835
3986.3878,0.003781
3988.2515,0.003752
3990.1152,0.003803
3991.9788,0.003729
3993.8425,0.003743
3995.7062,0.003858
3997.5698,0.004010
3999.4335,0.004069
