Wavenumber,Intensity
650.4205,-0.007084
652.2841,-0.007699
654.1478,-0.007573
656.0115,-0.006441
657.8751,-0.006563
659.7388,-0.008056
661.6025,-0.008662
663.4661,-0.007618
665.3298,-0.005765
667.1935,-0.004897
669.0571,-0.008484
670.9208,-0.008769
672.7845,-0.008041
674.6481,-0.007123
676.5118,-0.006478
678.3755,-0.007164
680.2392,-0.007568
682.1028,-0.007435
683.9665,-0.007845
685.8302,-0.008283
687.6938,-0.008124
689.5575,-0.007771
691.4212,-0.007554
693.2848,-0.008099
695.1485,-0.008810
697.0122,-0.008490
698.8758,-0.008050
700.7395,-0.008109
702.6032,-0.008006
704.4669,-0.007842
706.3305,-0.007942
708.1942,-0.008069
710.0579,-0.008045
711.9215,-0.007863
713.7852,-0.007840
715.6489,-0.007901
717.5125,-0.007717
719.3762,-0.007604
721.2399,-0.007557
723.1035,-0.007822
724.9672,-0.008052
726.8309,-0.007737
728.6945,-0.007483
730.5582,-0.007592
732.4219,-0.007307
734.2856,-0.007096
736.1492,-0.007198
738.0129,-0.007047
739.8766,-0.006874
741.7402,-0.006739
743.6039,-0.006591
745.4676,-0.006568
747.3312,-0.006681
749.1949,-0.006657
751.0586,-0.006300
752.9222,-0.006185
754.7859,-0.006330
756.6496,-0.006344
758.5132,-0.006394
760.3769,-0.006486
762.2406,-0.006332
764.1043,-0.006097
765.9679,-0.006042
767.8316,-0.006035
769.6953,-0.006104
771.5589,-0.006151
773.4226,-0.005989
775.2863,-0.005973
777.1499,-0.006118
779.0136,-0.006106
780.8773,-0.006003
782.7409,-0.005849
784.6046,-0.005788
786.4683,-0.005914
788.3320,-0.006021
790.1956,-0.005943
792.0593,-0.005739
793.9230,-0.005668
795.7866,-0.005731
797.6503,-0.005886
799.5140,-0.005897
801.3776,-0.005773
803.2413,-0.005792
805.1050,-0.005798
806.9686,-0.005816
808.8323,-0.005942
810.6960,-0.005878
812.5596,-0.005761
814.4233,-0.005689
816.2870,-0.005722
818.1507,-0.005934
820.0143,-0.006080
821.8780,-0.006099
823.7417,-0.006105
825.6053,-0.006129
827.4690,-0.006157
829.3327,-0.006108
831.1963,-0.006012
833.0600,-0.005961
834.9237,-0.006067
836.7873,-0.006201
838.6510,-0.006225
840.5147,-0.006282
842.3784,-0.006349
844.2420,-0.006301
846.1057,-0.006257
847.9694,-0.006365
849.8330,-0.006499
851.6967,-0.006451
853.5604,-0.006400
855.4240,-0.006456
857.2877,-0.006472
859.1514,-0.006391
861.0150,-0.006319
862.8787,-0.006364
864.7424,-0.006471
866.6060,-0.006533
868.4697,-0.006511
870.3334,-0.006474
872.1971,-0.006504
874.0607,-0.006507
875.9244,-0.006504
877.7881,-0.006576
879.6517,-0.006621
881.5154,-0.006564
883.3791,-0.006510
885.2427,-0.006551
887.1064,-0.006567
888.9701,-0.006570
890.8337,-0.006636
892.6974,-0.006639
894.5611,-0.006578
896.4247,-0.006552
898.2884,-0.006582
900.1521,-0.006594
902.0158,-0.006540
903.8794,-0.006505
905.7431,-0.006463
907.6068,-0.006408
909.4704,-0.006355
911.3341,-0.006285
913.1978,-0.006270
915.0614,-0.006185
916.9251,-0.006096
918.7888,-0.006114
920.6524,-0.006127
922.5161,-0.006131
924.3798,-0.006085
926.2435,-0.005975
928.1071,-0.005933
929.9708,-0.005950
931.8345,-0.005897
933.6981,-0.005813
935.5618,-0.005752
937.4255,-0.005710
939.2891,-0.005722
941.1528,-0.005726
943.0165,-0.005658
944.8801,-0.005609
946.7438,-0.005598
948.6075,-0.005529
950.4711,-0.005480
952.3348,-0.005497
954.1985,-0.005486
956.0622,-0.005478
957.9258,-0.005483
959.7895,-0.005474
961.6532,-0.005490
963.5168,-0.005490
965.3805,-0.005406
967.2442,-0.005340
969.1078,-0.005343
970.9715,-0.005358
972.8352,-0.005351
974.6988,-0.005308
976.5625,-0.005283
978.4262,-0.005285
980.2899,-0.005281
982.1535,-0.005284
984.0172,-0.005253
985.8809,-0.005229
987.7445,-0.005239
989.6082,-0.005263
991.4719,-0.005267
993.3355,-0.005211
995.1992,-0.005159
997.0629,-0.005130
998.9265,-0.005115
1000.7902,-0.005108
1002.6539,-0.005111
1004.5175,-0.005120
1006.3812,-0.005151
1008.2449,-0.005147
1010.1086,-0.005143
1011.9722,-0.005158
1013.8359,-0.005088
1015.6996,-0.005030
1017.5632,-0.005037
1019.4269,-0.005038
1021.2906,-0.005058
1023.1542,-0.005084
1025.0179,-0.005034
1026.8816,-0.005018
1028.7452,-0.005043
1030.6089,-0.005038
1032.4726,-0.005063
1034.3362,-0.005076
1036.1999,-0.005069
1038.0636,-0.005091
1039.9273,-0.005109
1041.7909,-0.005114
1043.6546,-0.005157
1045.5183,-0.005178
1047.3819,-0.005165
1049.2456,-0.005107
1051.1093,-0.005136
1052.9729,-0.005232
1054.8366,-0.005238
1056.7003,-0.005216
1058.5639,-0.005245
1060.4276,-0.005224
1062.2913,-0.005152
1064.1550,-0.005141
1066.0186,-0.005186
1067.8823,-0.005179
1069.7460,-0.005141
1071.6096,-0.005154
1073.4733,-0.005136
1075.3370,-0.005097
1077.2006,-0.005077
1079.0643,-0.005073
1080.9280,-0.005065
1082.7916,-0.005082
1084.6553,-0.005092
1086.5190,-0.005055
1088.3826,-0.005039
1090.2463,-0.005057
1092.1100,-0.005058
1093.9737,-0.005051
1095.8373,-0.005022
1097.7010,-0.004998
1099.5647,-0.004994
1101.4283,-0.004979
1103.2920,-0.004962
1105.1557,-0.004947
1107.0193,-0.004908
1108.8830,-0.004911
1110.7467,-0.004915
1112.6103,-0.004932
1114.4740,-0.004925
1116.3377,-0.004887
1118.2014,-0.004907
1120.0650,-0.004919
1121.9287,-0.004895
1123.7924,-0.004900
1125.6560,-0.004891
1127.5197,-0.004866
1129.3834,-0.004865
1131.2470,-0.004881
1133.1107,-0.004900
1134.9744,-0.004901
1136.8380,-0.004897
1138.7017,-0.004907
1140.5654,-0.004934
1142.4290,-0.004938
1144.2927,-0.004911
1146.1564,-0.004890
1148.0201,-0.004918
1149.8837,-0.004985
1151.7474,-0.005017
1153.6111,-0.005017
1155.4747,-0.004977
1157.3384,-0.004954
1159.2021,-0.004985
1161.0657,-0.005025
1162.9294,-0.005051
1164.7931,-0.005053
1166.6567,-0.005042
1168.5204,-0.005052
1170.3841,-0.005076
1172.2477,-0.005096
1174.1114,-0.005106
1175.9751,-0.005126
1177.8388,-0.005107
1179.7024,-0.005131
1181.5661,-0.005159
1183.4298,-0.005135
1185.2934,-0.005145
1187.1571,-0.005222
1189.0208,-0.005241
1190.8844,-0.005232
1192.7481,-0.005204
1194.6118,-0.005165
1196.4754,-0.005160
1198.3391,-0.005197
1200.2028,-0.005227
1202.0665,-0.005213
1203.9301,-0.005208
1205.7938,-0.005260
1207.6575,-0.005299
1209.5211,-0.005279
1211.3848,-0.005259
1213.2485,-0.005276
1215.1121,-0.005288
1216.9758,-0.005282
1218.8395,-0.005310
1220.7031,-0.005353
1222.5668,-0.005345
1224.4305,-0.005329
1226.2941,-0.005317
1228.1578,-0.005320
1230.0215,-0.005325
1231.8852,-0.005367
1233.7488,-0.005422
1235.6125,-0.005431
1237.4762,-0.005414
1239.3398,-0.005401
1241.2035,-0.005427
1243.0672,-0.005452
1244.9308,-0.005401
1246.7945,-0.005423
1248.6582,-0.005503
1250.5218,-0.005513
1252.3855,-0.005518
1254.2492,-0.005531
1256.1129,-0.005555
1257.9765,-0.005565
1259.8402,-0.005554
1261.7039,-0.005542
1263.5675,-0.005540
1265.4312,-0.005545
1267.2949,-0.005517
1269.1585,-0.005503
1271.0222,-0.005559
1272.8859,-0.005607
1274.7495,-0.005596
1276.6132,-0.005566
1278.4769,-0.005517
1280.3405,-0.005491
1282.2042,-0.005478
1284.0679,-0.005467
1285.9316,-0.005450
1287.7952,-0.005482
1289.6589,-0.005470
1291.5226,-0.005433
1293.3862,-0.005432
1295.2499,-0.005454
1297.1136,-0.005428
1298.9772,-0.005410
1300.8409,-0.005442
1302.7046,-0.005435
1304.5682,-0.005431
1306.4319,-0.005430
1308.2956,-0.005405
1310.1592,-0.005363
1312.0229,-0.005356
1313.8866,-0.005372
1315.7503,-0.005330
1317.6139,-0.005342
1319.4776,-0.005409
1321.3413,-0.005416
1323.2049,-0.005398
1325.0686,-0.005380
1326.9323,-0.005389
1328.7959,-0.005436
1330.6596,-0.005426
1332.5233,-0.005367
1334.3869,-0.005283
1336.2506,-0.005278
1338.1143,-0.005391
1339.9780,-0.005544
1341.8416,-0.005493
1343.7053,-0.005452
1345.5690,-0.005459
1347.4326,-0.005392
1349.2963,-0.005365
1351.1600,-0.005345
1353.0236,-0.005364
1354.8873,-0.005443
1356.7510,-0.005401
1358.6146,-0.005268
1360.4783,-0.005315
1362.3420,-0.005672
1364.2056,-0.005684
1366.0693,-0.005420
1367.9330,-0.005424
1369.7967,-0.005398
1371.6603,-0.005285
1373.5240,-0.005499
1375.3877,-0.005668
1377.2513,-0.005543
1379.1150,-0.005543
1380.9787,-0.005493
1382.8423,-0.005356
1384.7060,-0.005252
1386.5697,-0.005567
1388.4333,-0.005707
1390.2970,-0.005371
1392.1607,-0.005152
1394.0244,-0.005428
1395.8880,-0.005589
1397.7517,-0.005552
1399.6154,-0.005743
1401.4790,-0.005434
1403.3427,-0.005362
1405.2064,-0.005660
1407.0700,-0.005654
1408.9337,-0.005508
1410.7974,-0.005530
1412.6610,-0.005467
1414.5247,-0.005260
1416.3884,-0.005080
1418.2520,-0.005782
1420.1157,-0.006243
1421.9794,-0.005730
1423.8431,-0.005766
1425.7067,-0.005696
1427.5704,-0.005542
1429.4341,-0.005732
1431.2977,-0.005691
1433.1614,-0.005290
1435.0251,-0.005405
1436.8887,-0.006252
1438.7524,-0.006058
1440.6161,-0.005725
1442.4797,-0.005629
1444.3434,-0.005468
1446.2071,-0.005475
1448.0707,-0.005856
1449.9344,-0.005742
1451.7981,-0.005338
1453.6618,-0.004776
1455.5254,-0.005124
1457.3891,-0.006641
1459.2528,-0.006393
1461.1164,-0.005565
1462.9801,-0.005370
1464.8438,-0.005896
1466.7074,-0.005797
1468.5711,-0.005212
1470.4348,-0.005034
1472.2984,-0.005850
1474.1621,-0.006146
1476.0258,-0.006030
1477.8895,-0.005785
1479.7531,-0.005632
1481.6168,-0.005735
1483.4805,-0.005551
1485.3441,-0.005292
1487.2078,-0.005388
1489.0715,-0.005941
1490.9351,-0.006133
1492.7988,-0.005497
1494.6625,-0.005297
1496.5261,-0.005833
1498.3898,-0.006131
1500.2535,-0.005730
1502.1171,-0.004978
1503.9808,-0.004489
1505.8445,-0.005526
1507.7082,-0.006817
1509.5718,-0.006208
1511.4355,-0.005674
1513.2992,-0.005125
1515.1628,-0.005035
1517.0265,-0.005371
1518.8902,-0.005124
1520.7538,-0.005654
1522.6175,-0.006067
1524.4812,-0.005763
1526.3448,-0.005825
1528.2085,-0.005676
1530.0722,-0.005180
1531.9359,-0.005161
1533.7995,-0.005625
1535.6632,-0.004918
1537.5269,-0.004496
1539.3905,-0.005571
1541.2542,-0.006471
1543.1179,-0.006189
1544.9815,-0.006051
1546.8452,-0.005505
1548.7089,-0.005367
1550.5725,-0.005337
1552.4362,-0.005015
1554.2999,-0.004785
1556.1635,-0.004448
1558.0272,-0.005931
1559.8909,-0.007667
1561.7546,-0.006306
1563.6182,-0.005600
1565.4819,-0.005426
1567.3456,-0.005312
1569.2092,-0.005837
1571.0729,-0.005772
1572.9366,-0.005197
1574.8002,-0.005496
1576.6639,-0.006378
1578.5276,-0.006063
1580.3912,-0.005765
1582.2549,-0.005742
1584.1186,-0.005734
1585.9822,-0.005685
1587.8459,-0.005703
1589.7096,-0.005650
1591.5733,-0.005638
1593.4369,-0.005663
1595.3006,-0.005678
1597.1643,-0.005644
1599.0279,-0.005591
1600.8916,-0.005634
1602.7553,-0.005676
1604.6189,-0.005656
1606.4826,-0.005719
1608.3463,-0.005766
1610.2099,-0.005751
1612.0736,-0.005540
1613.9373,-0.005223
1615.8010,-0.005863
1617.6646,-0.006458
1619.5283,-0.005858
1621.3920,-0.005572
1623.2556,-0.006086
1625.1193,-0.006148
1626.9830,-0.006094
1628.8466,-0.005986
1630.7103,-0.005511
1632.5740,-0.004975
1634.4376,-0.005642
1636.3013,-0.006892
1638.1650,-0.006340
1640.0286,-0.005656
1641.8923,-0.005188
1643.7560,-0.004841
1645.6197,-0.005309
1647.4833,-0.005784
1649.3470,-0.004868
1651.2107,-0.004753
1653.0743,-0.006793
1654.9380,-0.006827
1656.8017,-0.005704
1658.6653,-0.005149
1660.5290,-0.005168
1662.3927,-0.005531
1664.2563,-0.005351
1666.1200,-0.004847
1667.9837,-0.005010
1669.8474,-0.005600
1671.7110,-0.005379
1673.5747,-0.005285
1675.4384,-0.005736
1677.3020,-0.005424
1679.1657,-0.005043
1681.0294,-0.004692
1682.8930,-0.005421
1684.7567,-0.006775
1686.6204,-0.006252
1688.4840,-0.005720
1690.3477,-0.005585
1692.2114,-0.005225
1694.0750,-0.005097
1695.9387,-0.005705
1697.8024,-0.005837
1699.6661,-0.006604
1701.5297,-0.006865
1703.3934,-0.006364
1705.2571,-0.006400
1707.1207,-0.006446
1708.9844,-0.006063
1710.8481,-0.005716
1712.7117,-0.005600
1714.5754,-0.005822
1716.4391,-0.006538
1718.3027,-0.007119
1720.1664,-0.006627
1722.0301,-0.006237
1723.8937,-0.006138
1725.7574,-0.006031
1727.6211,-0.005835
1729.4848,-0.005747
1731.3484,-0.005694
1733.2121,-0.006390
1735.0758,-0.006789
1736.9394,-0.006231
1738.8031,-0.006001
1740.6668,-0.006130
1742.5304,-0.006118
1744.3941,-0.005943
1746.2578,-0.005878
1748.1214,-0.006090
1749.9851,-0.006456
1751.8488,-0.006527
1753.7125,-0.006275
1755.5761,-0.006212
1757.4398,-0.006152
1759.3035,-0.006144
1761.1671,-0.006312
1763.0308,-0.006348
1764.8945,-0.006047
1766.7581,-0.005907
1768.6218,-0.005905
1770.4855,-0.006115
1772.3491,-0.006617
1774.2128,-0.006700
1776.0765,-0.006374
1777.9401,-0.006187
1779.8038,-0.006165
1781.6675,-0.006161
1783.5312,-0.006250
1785.3948,-0.006210
1787.2585,-0.005917
1789.1222,-0.005724
1790.9858,-0.006035
1792.8495,-0.006358
1794.7132,-0.006282
1796.5768,-0.006102
1798.4405,-0.006099
1800.3042,-0.006284
1802.1678,-0.006382
1804.0315,-0.006269
1805.8952,-0.006088
1807.7589,-0.006053
1809.6225,-0.006245
1811.4862,-0.006389
1813.3499,-0.006334
1815.2135,-0.006325
1817.0772,-0.006311
1818.9409,-0.006049
1820.8045,-0.005784
1822.6682,-0.005722
1824.5319,-0.005883
1826.3955,-0.005931
1828.2592,-0.006012
1830.1229,-0.006248
1831.9865,-0.006224
1833.8502,-0.005839
1835.7139,-0.005722
1837.5776,-0.005889
1839.4412,-0.005823
1841.3049,-0.005744
1843.1686,-0.005971
1845.0322,-0.006104
1846.8959,-0.006010
1848.7596,-0.005867
1850.6232,-0.005832
1852.4869,-0.005860
1854.3506,-0.005813
1856.2142,-0.005778
1858.0779,-0.005848
1859.9416,-0.005837
1861.8052,-0.005628
1863.6689,-0.005477
1865.5326,-0.005339
1867.3963,-0.005488
1869.2599,-0.005739
1871.1236,-0.005840
1872.9873,-0.005749
1874.8509,-0.005681
1876.7146,-0.005666
1878.5783,-0.005646
1880.4419,-0.005543
1882.3056,-0.005392
1884.1693,-0.005300
1886.0329,-0.005374
1887.8966,-0.005514
1889.7603,-0.005562
1891.6240,-0.005538
1893.4876,-0.005413
1895.3513,-0.005330
1897.2150,-0.005282
1899.0786,-0.005280
1900.9423,-0.005341
1902.8060,-0.005281
1904.6696,-0.005232
1906.5333,-0.005311
1908.3970,-0.005424
1910.2606,-0.005173
1912.1243,-0.005061
1913.9880,-0.005225
1915.8516,-0.005196
1917.7153,-0.005142
1919.5790,-0.005184
1921.4427,-0.005339
1923.3063,-0.005413
1925.1700,-0.005105
1927.0337,-0.004943
1928.8973,-0.005055
1930.7610,-0.004913
1932.6247,-0.004746
1934.4883,-0.004873
1936.3520,-0.004931
1938.2157,-0.004691
1940.0793,-0.004800
1941.9430,-0.005042
1943.8067,-0.005277
1945.6704,-0.005115
1947.5340,-0.004653
1949.3977,-0.004480
1951.2614,-0.004229
1953.1250,-0.004245
1954.9887,-0.004348
1956.8524,-0.004382
1958.7160,-0.004343
1960.5797,-0.004111
1962.4434,-0.003634
1964.3070,-0.003258
1966.1707,-0.003404
1968.0344,-0.003474
1969.8980,-0.003408
1971.7617,-0.003227
1973.6254,-0.003152
1975.4891,-0.003284
1977.3527,-0.002509
1979.2164,-0.001054
1981.0801,-0.001142
1982.9437,-0.002236
1984.8074,-0.002521
1986.6711,-0.002133
1988.5347,-0.002170
1990.3984,-0.002851
1992.2621,-0.003213
1994.1257,-0.003225
1995.9894,-0.003294
1997.8531,-0.003659
1999.7167,-0.004111
2001.5804,-0.004265
2003.4441,-0.003543
2005.3078,-0.002824
2007.1714,-0.002465
2009.0351,-0.002302
2010.8988,-0.002615
2012.7624,-0.002960
2014.6261,-0.003193
2016.4898,-0.002976
2018.3534,-0.002412
2020.2171,-0.002006
2022.0808,-0.001951
2023.9444,-0.002248
2025.8081,-0.002578
2027.6718,-0.002418
2029.5355,-0.002135
2031.3991,-0.002169
2033.2628,-0.002038
2035.1265,-0.002045
2036.9901,-0.001804
2038.8538,-0.001575
2040.7175,-0.002403
2042.5811,-0.002941
2044.4448,-0.002489
2046.3085,-0.002172
2048.1721,-0.002023
2050.0358,-0.001751
2051.8995,-0.002159
2053.7631,-0.003012
2055.6268,-0.003409
2057.4905,-0.003884
2059.3542,-0.003922
2061.2178,-0.003726
2063.0815,-0.003602
2064.9452,-0.003734
2066.8088,-0.003778
2068.6725,-0.003725
2070.5362,-0.003768
2072.3998,-0.003561
2074.2635,-0.003426
2076.1272,-0.003558
2077.9908,-0.003532
2079.8545,-0.003695
2081.7182,-0.003931
2083.5819,-0.004203
2085.4455,-0.004132
2087.3092,-0.004053
2089.1729,-0.004079
2091.0365,-0.004426
2092.9002,-0.004934
2094.7639,-0.004733
2096.6275,-0.004069
2098.4912,-0.003958
2100.3549,-0.004110
2102.2185,-0.004221
2104.0822,-0.004322
2105.9459,-0.004275
2107.8095,-0.004299
2109.6732,-0.004416
2111.5369,-0.004252
2113.4006,-0.004266
2115.2642,-0.004389
2117.1279,-0.004530
2118.9916,-0.004633
2120.8552,-0.004689
2122.7189,-0.004878
2124.5826,-0.004949
2126.4462,-0.004956
2128.3099,-0.005139
2130.1736,-0.005261
2132.0372,-0.005348
2133.9009,-0.005089
2135.7646,-0.004577
2137.6282,-0.004335
2139.4919,-0.004353
2141.3556,-0.004425
2143.2193,-0.004482
2145.0829,-0.004469
2146.9466,-0.004166
2148.8103,-0.003520
2150.6739,-0.003088
2152.5376,-0.003069
2154.4013,-0.003513
2156.2649,-0.003375
2158.1286,-0.001964
2159.9923,-0.000480
2161.8559,-0.000241
2163.7196,-0.000676
2165.5833,-0.000905
2167.4470,-0.000789
2169.3106,-0.001458
2171.1743,-0.002454
2173.0380,-0.003265
2174.9016,-0.003114
2176.7653,-0.002349
2178.6290,-0.002055
2180.4926,-0.002028
2182.3563,-0.002016
2184.2200,-0.002371
2186.0836,-0.002311
2187.9473,-0.001881
2189.8110,-0.001822
2191.6746,-0.002130
2193.5383,-0.002645
2195.4020,-0.003005
2197.2657,-0.002805
2199.1293,-0.002903
2200.9930,-0.003090
2202.8567,-0.002981
2204.7203,-0.002774
2206.5840,-0.002538
2208.4477,-0.002524
2210.3113,-0.002912
2212.1750,-0.002904
2214.0387,-0.002492
2215.9023,-0.002738
2217.7660,-0.003160
2219.6297,-0.002976
2221.4934,-0.002721
2223.3570,-0.002709
2225.2207,-0.003189
2227.0844,-0.003454
2228.9480,-0.003194
2230.8117,-0.003155
2232.6754,-0.003382
2234.5390,-0.003129
2236.4027,-0.003042
2238.2664,-0.003177
2240.1300,-0.003380
2241.9937,-0.003488
2243.8574,-0.003437
2245.7210,-0.003421
2247.5847,-0.003528
2249.4484,-0.003544
2251.3121,-0.003714
2253.1757,-0.003910
2255.0394,-0.003973
2256.9031,-0.003791
2258.7667,-0.003648
2260.6304,-0.003640
2262.4941,-0.003724
2264.3577,-0.003677
2266.2214,-0.003682
2268.0851,-0.003734
2269.9487,-0.003795
2271.8124,-0.003865
2273.6761,-0.003835
2275.5397,-0.003710
2277.4034,-0.003834
2279.2671,-0.003868
2281.1308,-0.003535
2282.9944,-0.003172
2284.8581,-0.003119
2286.7218,-0.003397
2288.5854,-0.003775
2290.4491,-0.003730
2292.3128,-0.003694
2294.1764,-0.003814
2296.0401,-0.003758
2297.9038,-0.003883
2299.7674,-0.004221
2301.6311,-0.004208
2303.4948,-0.004032
2305.3585,-0.003961
2307.2221,-0.004080
2309.0858,-0.004165
2310.9495,-0.004019
2312.8131,-0.003743
2314.6768,-0.003612
2316.5405,-0.003543
2318.4041,-0.003542
2320.2678,-0.003355
2322.1315,-0.002840
2323.9951,-0.002742
2325.8588,-0.003630
2327.7225,-0.004394
2329.5861,-0.004636
2331.4498,-0.004716
2333.3135,-0.004795
2335.1772,-0.004783
2337.0408,-0.004884
2338.9045,-0.004901
2340.7682,-0.004935
2342.6318,-0.005310
2344.4955,-0.005698
2346.3592,-0.005506
2348.2228,-0.004919
2350.0865,-0.004265
2351.9502,-0.004019
2353.8138,-0.003986
2355.6775,-0.004027
2357.5412,-0.004159
2359.4049,-0.004452
2361.2685,-0.004825
2363.1322,-0.005098
2364.9959,-0.005595
2366.8595,-0.006034
2368.7232,-0.006154
2370.5869,-0.006375
2372.4505,-0.006581
2374.3142,-0.006572
2376.1779,-0.006248
2378.0415,-0.006044
2379.9052,-0.006060
2381.7689,-0.006012
2383.6325,-0.005895
2385.4962,-0.005842
2387.3599,-0.005765
2389.2236,-0.005734
2391.0872,-0.005772
2392.9509,-0.005754
2394.8146,-0.005673
2396.6782,-0.005679
2398.5419,-0.005683
2400.4056,-0.005665
2402.2692,-0.005708
2404.1329,-0.005736
2405.9966,-0.005571
2407.8602,-0.005368
2409.7239,-0.005280
2411.5876,-0.005342
2413.4512,-0.005355
2415.3149,-0.005382
2417.1786,-0.005409
2419.0423,-0.005319
2420.9059,-0.005109
2422.7696,-0.005118
2424.6333,-0.005222
2426.4969,-0.005134
2428.3606,-0.005153
2430.2243,-0.005333
2432.0879,-0.005344
2433.9516,-0.005305
2435.8153,-0.005254
2437.6789,-0.005206
2439.5426,-0.005138
2441.4063,-0.005059
2443.2700,-0.005082
2445.1336,-0.005269
2446.9973,-0.005267
2448.8610,-0.005083
2450.7246,-0.004978
2452.5883,-0.004943
2454.4520,-0.004926
2456.3156,-0.004988
2458.1793,-0.004991
2460.0430,-0.005031
2461.9066,-0.005134
2463.7703,-0.005235
2465.6340,-0.005203
2467.4976,-0.005203
2469.3613,-0.005174
2471.2250,-0.005133
2473.0887,-0.005128
2474.9523,-0.005197
2476.8160,-0.005254
2478.6797,-0.005273
2480.5433,-0.005226
2482.4070,-0.005217
2484.2707,-0.005190
2486.1343,-0.005142
2487.9980,-0.005180
2489.8617,-0.005231
2491.7253,-0.005280
2493.5890,-0.005371
2495.4527,-0.005177
2497.3164,-0.004926
2499.1800,-0.004921
2501.0437,-0.005101
2502.9074,-0.005168
2504.7710,-0.005215
2506.6347,-0.005245
2508.4984,-0.005239
2510.3620,-0.005199
2512.2257,-0.005185
2514.0894,-0.005107
2515.9530,-0.005069
2517.8167,-0.005090
2519.6804,-0.005056
2521.5440,-0.005005
2523.4077,-0.005094
2525.2714,-0.005124
2527.1351,-0.005053
2528.9987,-0.004989
2530.8624,-0.005038
2532.7261,-0.005118
2534.5897,-0.005155
2536.4534,-0.005046
2538.3171,-0.005006
2540.1807,-0.005100
2542.0444,-0.005086
2543.9081,-0.004971
2545.7717,-0.004945
2547.6354,-0.004984
2549.4991,-0.005088
2551.3627,-0.005179
2553.2264,-0.005182
2555.0901,-0.004989
2556.9538,-0.004939
2558.8174,-0.005053
2560.6811,-0.005029
2562.5448,-0.004989
2564.4084,-0.005058
2566.2721,-0.004923
2568.1358,-0.004862
2569.9994,-0.005040
2571.8631,-0.005200
2573.7268,-0.005097
2575.5904,-0.005025
2577.4541,-0.005069
2579.3178,-0.005007
2581.1815,-0.004904
2583.0451,-0.004956
2584.9088,-0.004924
2586.7725,-0.004987
2588.6361,-0.005236
2590.4998,-0.005206
2592.3635,-0.004929
2594.2271,-0.004976
2596.0908,-0.005048
2597.9545,-0.004958
2599.8181,-0.004939
2601.6818,-0.005064
2603.5455,-0.005072
2605.4091,-0.004993
2607.2728,-0.004924
2609.1365,-0.004922
2611.0002,-0.004926
2612.8638,-0.004935
2614.7275,-0.004989
2616.5912,-0.005089
2618.4548,-0.005089
2620.3185,-0.004906
2622.1822,-0.004795
2624.0458,-0.004954
2625.9095,-0.005006
2627.7732,-0.004892
2629.6368,-0.004866
2631.5005,-0.004975
2633.3642,-0.004993
2635.2279,-0.004983
2637.0915,-0.005031
2638.9552,-0.005085
2640.8189,-0.005088
2642.6825,-0.005055
2644.5462,-0.004994
2646.4099,-0.005060
2648.2735,-0.005196
2650.1372,-0.005263
2652.0009,-0.005305
2653.8645,-0.005369
2655.7282,-0.005369
2657.5919,-0.005450
2659.4555,-0.005538
2661.3192,-0.005615
2663.1829,-0.005765
2665.0466,-0.005924
2666.9102,-0.005964
2668.7739,-0.005928
2670.6376,-0.005883
2672.5012,-0.005921
2674.3649,-0.005991
2676.2286,-0.006021
2678.0922,-0.005971
2679.9559,-0.005959
2681.8196,-0.005995
2683.6832,-0.005990
2685.5469,-0.005975
2687.4106,-0.005948
2689.2742,-0.005908
2691.1379,-0.005951
2693.0016,-0.006014
2694.8653,-0.005996
2696.7289,-0.005951
2698.5926,-0.005981
2700.4563,-0.005987
2702.3199,-0.005969
2704.1836,-0.005912
2706.0473,-0.005881
2707.9109,-0.005887
2709.7746,-0.005903
2711.6383,-0.005906
2713.5019,-0.005942
2715.3656,-0.005925
2717.2293,-0.005952
2719.0930,-0.005956
2720.9566,-0.005921
2722.8203,-0.005928
2724.6840,-0.005924
2726.5476,-0.005947
2728.4113,-0.005981
2730.2750,-0.005876
2732.1386,-0.005852
2734.0023,-0.005933
2735.8660,-0.005945
2737.7296,-0.005926
2739.5933,-0.005935
2741.4570,-0.005929
2743.3206,-0.006019
2745.1843,-0.006046
2747.0480,-0.006010
2748.9117,-0.005999
2750.7753,-0.005980
2752.6390,-0.005895
2754.5027,-0.005884
2756.3663,-0.005901
2758.2300,-0.005942
2760.0937,-0.005953
2761.9573,-0.005933
2763.8210,-0.005953
2765.6847,-0.005952
2767.5483,-0.005909
2769.4120,-0.005909
2771.2757,-0.005874
2773.1394,-0.005870
2775.0030,-0.005894
2776.8667,-0.005901
2778.7304,-0.005944
2780.5940,-0.005966
2782.4577,-0.005958
2784.3214,-0.005962
2786.1850,-0.005945
2788.0487,-0.005946
2789.9124,-0.005915
2791.7760,-0.005889
2793.6397,-0.005901
2795.5034,-0.005943
2797.3670,-0.005885
2799.2307,-0.005870
2801.0944,-0.005875
2802.9581,-0.005878
2804.8217,-0.005932
2806.6854,-0.005878
2808.5491,-0.005791
2810.4127,-0.005839
2812.2764,-0.005837
2814.1401,-0.005837
2816.0037,-0.005846
2817.8674,-0.005855
2819.7311,-0.005813
2821.5947,-0.005793
2823.4584,-0.005738
2825.3221,-0.005777
2827.1857,-0.005867
2829.0494,-0.005934
2830.9131,-0.005908
2832.7768,-0.005841
2834.6404,-0.005796
2836.5041,-0.005825
2838.3678,-0.005806
2840.2314,-0.005691
2842.0951,-0.005656
2843.9588,-0.005680
2845.8224,-0.005702
2847.6861,-0.005653
2849.5498,-0.005570
2851.4134,-0.005753
2853.2771,-0.005902
2855.1408,-0.005868
2857.0045,-0.005837
2858.8681,-0.005755
2860.7318,-0.005689
2862.5955,-0.005701
2864.4591,-0.005698
2866.3228,-0.005681
2868.1865,-0.005687
2870.0501,-0.005734
2871.9138,-0.005707
2873.7775,-0.005767
2875.6411,-0.005774
2877.5048,-0.005738
2879.3685,-0.005726
2881.2321,-0.005679
2883.0958,-0.005712
2884.9595,-0.005799
2886.8232,-0.005721
2888.6868,-0.005729
2890.5505,-0.005680
2892.4142,-0.005577
2894.2778,-0.005613
2896.1415,-0.005673
2898.0052,-0.005659
2899.8688,-0.005691
2901.7325,-0.005665
2903.5962,-0.005622
2905.4598,-0.005638
2907.3235,-0.005609
2909.1872,-0.005481
2911.0509,-0.005471
2912.9145,-0.005509
2914.7782,-0.005588
2916.6419,-0.005660
2918.5055,-0.005643
2920.3692,-0.005639
2922.2329,-0.005640
2924.0965,-0.005566
2925.9602,-0.005608
2927.8239,-0.005631
2929.6875,-0.005615
2931.5512,-0.005637
2933.4149,-0.005746
2935.2785,-0.005629
2937.1422,-0.005482
2939.0059,-0.005531
2940.8696,-0.005617
2942.7332,-0.005609
2944.5969,-0.005603
2946.4606,-0.005523
2948.3242,-0.005581
2950.1879,-0.005615
2952.0516,-0.005591
2953.9152,-0.005555
2955.7789,-0.005577
2957.6426,-0.005661
2959.5062,-0.005655
2961.3699,-0.005611
2963.2336,-0.005649
2965.0972,-0.005688
2966.9609,-0.005760
2968.8246,-0.005809
2970.6883,-0.005759
2972.5519,-0.005715
2974.4156,-0.005768
2976.2793,-0.005816
2978.1429,-0.005887
2980.0066,-0.005896
2981.8703,-0.005742
2983.7339,-0.005743
2985.5976,-0.005817
2987.4613,-0.005832
2989.3249,-0.005822
2991.1886,-0.005801
2993.0523,-0.005890
2994.9160,-0.005816
2996.7796,-0.005727
2998.6433,-0.005805
3000.5070,-0.005769
3002.3706,-0.005753
3004.2343,-0.005763
3006.0980,-0.005681
3007.9616,-0.005613
3009.8253,-0.005647
3011.6890,-0.005693
3013.5526,-0.005716
3015.4163,-0.005717
3017.2800,-0.005788
3019.1436,-0.005916
3021.0073,-0.005824
3022.8710,-0.005730
3024.7347,-0.005733
3026.5983,-0.005683
3028.4620,-0.005692
3030.3257,-0.005823
3032.1893,-0.005816
3034.0530,-0.005770
3035.9167,-0.005799
3037.7803,-0.005678
3039.6440,-0.005575
3041.5077,-0.005697
3043.3713,-0.005753
3045.2350,-0.005720
3047.0987,-0.005588
3048.9624,-0.005628
3050.8260,-0.005677
3052.6897,-0.005766
3054.5534,-0.005763
3056.4170,-0.005708
3058.2807,-0.005697
3060.1444,-0.005746
3062.0080,-0.005798
3063.8717,-0.005709
3065.7354,-0.005688
3067.5990,-0.005698
3069.4627,-0.005634
3071.3264,-0.005595
3073.1900,-0.005630
3075.0537,-0.005570
3076.9174,-0.005426
3078.7811,-0.005478
3080.6447,-0.005529
3082.5084,-0.005602
3084.3721,-0.005684
3086.2357,-0.005774
3088.0994,-0.005703
3089.9631,-0.005571
3091.8267,-0.005617
3093.6904,-0.005620
3095.5541,-0.005597
3097.4177,-0.005553
3099.2814,-0.005509
3101.1451,-0.005565
3103.0087,-0.005557
3104.8724,-0.005524
3106.7361,-0.005651
3108.5998,-0.005686
3110.4634,-0.005546
3112.3271,-0.005530
3114.1908,-0.005562
3116.0544,-0.005560
3117.9181,-0.005542
3119.7818,-0.005477
3121.6454,-0.005435
3123.5091,-0.005525
3125.3728,-0.005620
3127.2364,-0.005573
3129.1001,-0.005476
3130.9638,-0.005496
3132.8275,-0.005473
3134.6911,-0.005363
3136.5548,-0.005436
3138.4185,-0.005486
3140.2821,-0.005506
3142.1458,-0.005569
3144.0095,-0.005506
3145.8731,-0.005517
3147.7368,-0.005554
3149.6005,-0.005573
3151.4641,-0.005601
3153.3278,-0.005562
3155.1915,-0.005419
3157.0551,-0.005313
3158.9188,-0.005369
3160.7825,-0.005474
3162.6462,-0.005352
3164.5098,-0.005452
3166.3735,-0.005638
3168.2372,-0.005487
3170.1008,-0.005483
3171.9645,-0.005483
3173.8282,-0.005401
3175.6918,-0.005384
3177.5555,-0.005368
3179.4192,-0.005442
3181.2828,-0.005467
3183.1465,-0.005327
3185.0102,-0.005382
3186.8739,-0.005354
3188.7375,-0.005243
3190.6012,-0.005202
3192.4649,-0.005138
3194.3285,-0.005182
3196.1922,-0.005272
3198.0559,-0.005385
3199.9195,-0.005420
3201.7832,-0.005347
3203.6469,-0.005313
3205.5105,-0.005215
3207.3742,-0.005302
3209.2379,-0.005383
3211.1015,-0.005314
3212.9652,-0.005240
3214.8289,-0.005234
3216.6926,-0.005263
3218.5562,-0.005273
3220.4199,-0.005156
3222.2836,-0.005224
3224.1472,-0.005241
3226.0109,-0.005145
3227.8746,-0.005193
3229.7382,-0.005308
3231.6019,-0.005328
3233.4656,-0.005223
3235.3292,-0.005333
3237.1929,-0.005431
3239.0566,-0.005244
3240.9202,-0.005241
3242.7839,-0.005254
3244.6476,-0.005176
3246.5113,-0.005266
3248.3749,-0.005184
3250.2386,-0.005114
3252.1023,-0.005252
3253.9659,-0.005254
3255.8296,-0.005093
3257.6933,-0.005247
3259.5569,-0.005344
3261.4206,-0.005095
3263.2843,-0.005092
3265.1479,-0.005293
3267.0116,-0.005345
3268.8753,-0.005207
3270.7390,-0.005032
3272.6026,-0.004959
3274.4663,-0.005145
3276.3300,-0.005208
3278.1936,-0.005193
3280.0573,-0.005177
3281.9210,-0.005056
3283.7846,-0.005090
3285.6483,-0.005221
3287.5120,-0.005294
3289.3756,-0.005318
3291.2393,-0.005231
3293.1030,-0.005216
3294.9666,-0.005262
3296.8303,-0.005176
3298.6940,-0.005011
3300.5577,-0.005054
3302.4213,-0.005201
3304.2850,-0.005341
3306.1487,-0.005316
3308.0123,-0.005208
3309.8760,-0.005075
3311.7397,-0.005222
3313.6033,-0.005325
3315.4670,-0.005132
3317.3307,-0.005133
3319.1943,-0.005135
3321.0580,-0.005089
3322.9217,-0.005166
3324.7854,-0.005283
3326.6490,-0.005377
3328.5127,-0.005287
3330.3764,-0.005195
3332.2400,-0.005218
3334.1037,-0.005428
3335.9674,-0.005511
3337.8310,-0.005449
3339.6947,-0.005417
3341.5584,-0.005364
3343.4220,-0.005343
3345.2857,-0.005353
3347.1494,-0.005318
3349.0130,-0.005300
3350.8767,-0.005342
3352.7404,-0.005347
3354.6041,-0.005285
3356.4677,-0.005207
3358.3314,-0.005217
3360.1951,-0.005363
3362.0587,-0.005473
3363.9224,-0.005607
3365.7861,-0.005575
3367.6497,-0.005365
3369.5134,-0.005309
3371.3771,-0.005342
3373.2407,-0.005261
3375.1044,-0.005430
3376.9681,-0.005611
3378.8317,-0.005455
3380.6954,-0.005400
3382.5591,-0.005344
3384.4228,-0.005325
3386.2864,-0.005669
3388.1501,-0.005629
3390.0138,-0.005418
3391.8774,-0.005331
3393.7411,-0.005406
3395.6048,-0.005578
3397.4684,-0.005800
3399.3321,-0.005629
3401.1958,-0.005512
3403.0594,-0.005719
3404.9231,-0.005860
3406.7868,-0.005841
3408.6505,-0.005575
3410.5141,-0.005522
3412.3778,-0.005679
3414.2415,-0.005679
3416.1051,-0.005605
3417.9688,-0.005610
3419.8325,-0.005741
3421.6961,-0.005616
3423.5598,-0.005693
3425.4235,-0.005777
3427.2871,-0.005673
3429.1508,-0.005583
3431.0145,-0.005591
3432.8781,-0.005691
3434.7418,-0.005788
3436.6055,-0.005769
3438.4692,-0.005556
3440.3328,-0.005458
3442.1965,-0.005648
3444.0602,-0.005624
3445.9238,-0.005705
3447.7875,-0.005846
3449.6512,-0.005850
3451.5148,-0.005763
3453.3785,-0.005789
3455.2422,-0.005763
3457.1058,-0.005646
3458.9695,-0.005792
3460.8332,-0.005887
3462.6969,-0.005976
3464.5605,-0.005974
3466.4242,-0.005924
3468.2879,-0.005847
3470.1515,-0.005810
3472.0152,-0.005903
3473.8789,-0.005886
3475.7425,-0.005776
3477.6062,-0.005803
3479.4699,-0.006024
3481.3335,-0.006121
3483.1972,-0.006065
3485.0609,-0.005934
3486.9245,-0.005909
3488.7882,-0.005858
3490.6519,-0.006023
3492.5156,-0.005936
3494.3792,-0.006121
3496.2429,-0.006204
3498.1066,-0.005847
3499.9702,-0.005885
3501.8339,-0.006280
3503.6976,-0.006371
3505.5612,-0.006263
3507.4249,-0.006233
3509.2886,-0.006280
3511.1522,-0.006397
3513.0159,-0.006590
3514.8796,-0.006226
3516.7432,-0.005722
3518.6069,-0.005948
3520.4706,-0.006098
3522.3343,-0.006075
3524.1979,-0.006180
3526.0616,-0.006269
3527.9253,-0.006340
3529.7889,-0.006216
3531.6526,-0.005930
3533.5163,-0.005735
3535.3799,-0.005918
3537.2436,-0.006159
3539.1073,-0.006325
3540.9709,-0.006207
3542.8346,-0.006216
3544.6983,-0.006316
3546.5620,-0.006329
3548.4256,-0.006535
3550.2893,-0.006356
3552.1530,-0.006027
3554.0166,-0.006290
3555.8803,-0.006407
3557.7440,-0.006267
3559.6076,-0.006073
3561.4713,-0.005783
3563.3350,-0.005828
3565.1986,-0.006022
3567.0623,-0.006448
3568.9260,-0.006681
3570.7896,-0.006358
3572.6533,-0.006094
3574.5170,-0.005999
3576.3807,-0.006090
3578.2443,-0.006104
3580.1080,-0.005921
3581.9717,-0.005949
3583.8353,-0.006013
3585.6990,-0.005896
3587.5627,-0.006020
3589.4263,-0.006176
3591.2900,-0.006017
3593.1537,-0.005699
3595.0173,-0.005665
3596.8810,-0.005832
3598.7447,-0.005994
3600.6084,-0.005819
3602.4720,-0.005864
3604.3357,-0.005903
3606.1994,-0.005713
3608.0630,-0.005660
3609.9267,-0.005840
3611.7904,-0.005743
3613.6540,-0.005796
3615.5177,-0.005907
3617.3814,-0.005776
3619.2450,-0.005692
3621.1087,-0.005761
3622.9724,-0.005621
3624.8360,-0.005489
3626.6997,-0.005326
3628.5634,-0.005388
3630.4271,-0.005935
3632.2907,-0.005982
3634.1544,-0.005453
3636.0181,-0.005459
3637.8817,-0.005477
3639.7454,-0.005507
3641.6091,-0.005553
3643.4727,-0.005370
3645.3364,-0.005183
3647.2001,-0.005226
3649.0637,-0.005575
3650.9274,-0.006051
3652.7911,-0.006004
3654.6547,-0.005524
3656.5184,-0.005323
3658.3821,-0.005560
3660.2458,-0.005402
3662.1094,-0.005280
3663.9731,-0.005147
3665.8368,-0.005054
3667.7004,-0.005110
3669.5641,-0.005249
3671.4278,-0.005554
3673.2914,-0.005641
3675.1551,-0.005437
3677.0188,-0.005884
3678.8824,-0.005990
3680.7461,-0.005451
3682.6098,-0.005159
3684.4735,-0.005071
3686.3371,-0.005072
3688.2008,-0.005031
3690.0645,-0.005399
3691.9281,-0.005648
3693.7918,-0.005492
3695.6555,-0.005346
3697.5191,-0.005266
3699.3828,-0.005192
3701.2465,-0.005006
3703.1101,-0.005259
3704.9738,-0.005295
3706.8375,-0.005018
3708.7011,-0.004920
3710.5648,-0.005149
3712.4285,-0.005467
3714.2922,-0.005598
3716.1558,-0.005300
3718.0195,-0.005186
3719.8832,-0.005245
3721.7468,-0.005194
3723.6105,-0.005069
3725.4742,-0.005059
3727.3378,-0.005060
3729.2015,-0.005068
3731.0652,-0.004819
3732.9288,-0.004870
3734.7925,-0.005169
3736.6562,-0.005368
3738.5199,-0.005583
3740.3835,-0.005364
3742.2472,-0.004877
3744.1109,-0.004777
3745.9745,-0.005545
3747.8382,-0.005772
3749.7019,-0.005163
3751.5655,-0.005493
3753.4292,-0.005730
3755.2929,-0.005713
3757.1565,-0.005375
3759.0202,-0.005310
3760.8839,-0.005505
3762.7475,-0.005594
3764.6112,-0.005299
3766.4749,-0.005398
3768.3386,-0.005540
3770.2022,-0.005470
3772.0659,-0.005532
3773.9296,-0.005454
3775.7932,-0.005351
3777.6569,-0.005394
3779.5206,-0.005519
3781.3842,-0.005856
3783.2479,-0.005595
3785.1116,-0.005424
3786.9752,-0.005649
3788.8389,-0.005478
3790.7026,-0.005226
3792.5662,-0.005414
3794.4299,-0.005340
3796.2936,-0.005193
3798.1573,-0.005341
3800.0209,-0.005365
3801.8846,-0.005352
3803.7483,-0.005823
3805.6119,-0.005412
3807.4756,-0.005317
3809.3393,-0.005705
3811.2029,-0.005523
3813.0666,-0.005188
3814.9303,-0.005060
3816.7939,-0.005334
3818.6576,-0.005766
3820.5213,-0.005284
3822.3850,-0.005585
3824.2486,-0.005857
3826.1123,-0.005323
3827.9760,-0.005162
3829.8396,-0.005420
3831.7033,-0.005490
3833.5670,-0.005734
3835.4306,-0.005468
3837.2943,-0.005318
3839.1580,-0.005586
3841.0216,-0.005902
3842.8853,-0.005793
3844.7490,-0.005734
3846.6126,-0.005701
3848.4763,-0.005409
3850.3400,-0.005039
3852.2037,-0.005193
3854.0673,-0.005988
3855.9310,-0.006498
3857.7947,-0.005849
3859.6583,-0.005642
3861.5220,-0.005804
3863.3857,-0.005716
3865.2493,-0.005582
3867.1130,-0.005698
3868.9767,-0.005503
3870.8403,-0.005815
3872.7040,-0.006171
3874.5677,-0.005681
3876.4314,-0.005667
3878.2950,-0.005549
3880.1587,-0.005310
3882.0224,-0.005692
3883.8860,-0.005737
3885.7497,-0.005546
3887.6134,-0.005812
3889.4770,-0.005705
3891.3407,-0.005543
3893.2044,-0.005955
3895.0680,-0.005807
3896.9317,-0.005536
3898.7954,-0.005421
3900.6590,-0.005614
3902.5227,-0.005902
3904.3864,-0.006160
3906.2501,-0.006146
3908.1137,-0.005838
3909.9774,-0.005626
3911.8411,-0.005610
3913.7047,-0.005565
3915.5684,-0.005663
3917.4321,-0.005869
3919.2957,-0.006039
3921.1594,-0.005795
3923.0231,-0.005644
3924.8867,-0.005646
3926.7504,-0.005895
3928.6141,-0.005733
3930.4777,-0.005623
3932.3414,-0.005720
3934.2051,-0.005783
3936.0688,-0.005758
3937.9324,-0.005680
3939.7961,-0.005601
3941.6598,-0.005688
3943.5234,-0.005831
3945.3871,-0.005953
3947.2508,-0.005745
3949.1144,-0.005718
3950.9781,-0.005877
3952.8418,-0.005899
3954.7054,-0.005781
3956.5691,-0.005752
3958.4328,-0.005765
3960.2965,-0.005883
3962.1601,-0.005850
3964.0238,-0.005786
3965.8875,-0.005645
3967.7511,-0.005650
3969.6148,-0.005724
3971.4785,-0.005764
3973.3421,-0.005828
3975.2058,-0.005828
3977.0695,-0.005862
3978.9331,-0.006067
3980.7968,-0.005942
3982.6605,-0.005865
3984.5241,-0.005866
3986.3878,-0.005815
3988.2515,-0.005750
3990.1152,-0.005831
3991.9788,-0.005854
3993.8425,-0.005774
3995.7062,-0.005664
3997.5698,-0.005712
3999.4335,-0.005609
