Wavenumber,Intensity
650.4205,-0.005004
652.2841,-0.005019
654.1478,-0.005011
656.0115,-0.004639
657.8751,-0.004827
659.7388,-0.005018
661.6025,-0.005021
663.4661,-0.005352
665.3298,-0.005053
667.1935,-0.004352
669.0571,-0.004468
670.9208,-0.004585
672.7845,-0.004419
674.6481,-0.004260
676.5118,-0.004852
678.3755,-0.005530
680.2392,-0.005236
682.1028,-0.004740
683.9665,-0.004813
685.8302,-0.004874
687.6938,-0.004697
689.5575,-0.004592
691.4212,-0.004536
693.2848,-0.004663
695.1485,-0.004783
697.0122,-0.005182
698.8758,-0.005279
700.7395,-0.005137
702.6032,-0.005176
704.4669,-0.005273
706.3305,-0.005391
708.1942,-0.005557
710.0579,-0.005583
711.9215,-0.005488
713.7852,-0.005520
715.6489,-0.005355
717.5125,-0.005050
719.3762,-0.005118
721.2399,-0.005435
723.1035,-0.005554
724.9672,-0.005392
726.8309,-0.005371
728.6945,-0.005550
730.5582,-0.005693
732.4219,-0.005702
734.2856,-0.005666
736.1492,-0.005835
738.0129,-0.005831
739.8766,-0.005641
741.7402,-0.005766
743.6039,-0.005898
745.4676,-0.005863
747.3312,-0.005777
749.1949,-0.005856
751.0586,-0.005960
752.9222,-0.005888
754.7859,-0.005789
756.6496,-0.005621
758.5132,-0.005773
760.3769,-0.005961
762.2406,-0.005680
764.1043,-0.005563
765.9679,-0.005713
767.8316,-0.005840
769.6953,-0.005929
771.5589,-0.005875
773.4226,-0.005771
775.2863,-0.005771
777.1499,-0.005781
779.0136,-0.005812
780.8773,-0.005787
782.7409,-0.005750
784.6046,-0.005754
786.4683,-0.005768
788.3320,-0.005622
790.1956,-0.005551
792.0593,-0.005672
793.9230,-0.005673
795.7866,-0.005720
797.6503,-0.005782
799.5140,-0.005776
801.3776,-0.005848
803.2413,-0.005786
805.1050,-0.005688
806.9686,-0.005647
808.8323,-0.005583
810.6960,-0.005636
812.5596,-0.005745
814.4233,-0.005680
816.2870,-0.005599
818.1507,-0.005507
820.0143,-0.005387
821.8780,-0.005492
823.7417,-0.005622
825.6053,-0.005501
827.4690,-0.005344
829.3327,-0.005255
831.1963,-0.005179
833.0600,-0.005145
834.9237,-0.005192
836.7873,-0.005215
838.6510,-0.005076
840.5147,-0.004972
842.3784,-0.004950
844.2420,-0.004876
846.1057,-0.004806
847.9694,-0.004766
849.8330,-0.004767
851.6967,-0.004777
853.5604,-0.004771
855.4240,-0.004698
857.2877,-0.004507
859.1514,-0.004368
861.0150,-0.004374
862.8787,-0.004379
864.7424,-0.004391
866.6060,-0.004358
868.4697,-0.004182
870.3334,-0.004010
872.1971,-0.003988
874.0607,-0.004017
875.9244,-0.003983
877.7881,-0.003939
879.6517,-0.003885
881.5154,-0.003817
883.3791,-0.003741
885.2427,-0.003673
887.1064,-0.003607
888.9701,-0.003518
890.8337,-0.003529
892.6974,-0.003560
894.5611,-0.003462
896.4247,-0.003339
898.2884,-0.003326
900.1521,-0.003373
902.0158,-0.003418
903.8794,-0.003420
905.7431,-0.003333
907.6068,-0.003236
909.4704,-0.003181
911.3341,-0.003109
913.1978,-0.003102
915.0614,-0.003148
916.9251,-0.003129
918.7888,-0.003088
920.6524,-0.003093
922.5161,-0.003108
924.3798,-0.003068
926.2435,-0.002997
928.1071,-0.002998
929.9708,-0.003046
931.8345,-0.003067
933.6981,-0.003030
935.5618,-0.002975
937.4255,-0.002933
939.2891,-0.002969
941.1528,-0.003054
943.0165,-0.003037
944.8801,-0.002989
946.7438,-0.002987
948.6075,-0.002993
950.4711,-0.003021
952.3348,-0.003039
954.1985,-0.003003
956.0622,-0.002944
957.9258,-0.002939
959.7895,-0.002951
961.6532,-0.002915
963.5168,-0.002913
965.3805,-0.002891
967.2442,-0.002849
969.1078,-0.002867
970.9715,-0.002889
972.8352,-0.002873
974.6988,-0.002858
976.5625,-0.002849
978.4262,-0.002873
980.2899,-0.002919
982.1535,-0.002881
984.0172,-0.002781
985.8809,-0.002713
987.7445,-0.002741
989.6082,-0.002791
991.4719,-0.002777
993.3355,-0.002792
995.1992,-0.002775
997.0629,-0.002721
998.9265,-0.002686
1000.7902,-0.002673
1002.6539,-0.002634
1004.5175,-0.002576
1006.3812,-0.002508
1008.2449,-0.002499
1010.1086,-0.002535
1011.9722,-0.002550
1013.8359,-0.002519
1015.6996,-0.002459
1017.5632,-0.002435
1019.4269,-0.002415
1021.2906,-0.002385
1023.1542,-0.002377
1025.0179,-0.002387
1026.8816,-0.002384
1028.7452,-0.002357
1030.6089,-0.002327
1032.4726,-0.002302
1034.3362,-0.002284
1036.1999,-0.002288
1038.0636,-0.002283
1039.9273,-0.002289
1041.7909,-0.002324
1043.6546,-0.002336
1045.5183,-0.002314
1047.3819,-0.002246
1049.2456,-0.002159
1051.1093,-0.002107
1052.9729,-0.002082
1054.8366,-0.002035
1056.7003,-0.001989
1058.5639,-0.001973
1060.4276,-0.001951
1062.2913,-0.001942
1064.1550,-0.001919
1066.0186,-0.001876
1067.8823,-0.001856
1069.7460,-0.001823
1071.6096,-0.001845
1073.4733,-0.001859
1075.3370,-0.001813
1077.2006,-0.001802
1079.0643,-0.001828
1080.9280,-0.001819
1082.7916,-0.001821
1084.6553,-0.001835
1086.5190,-0.001835
1088.3826,-0.001845
1090.2463,-0.001810
1092.1100,-0.001764
1093.9737,-0.001800
1095.8373,-0.001820
1097.7010,-0.001763
1099.5647,-0.001725
1101.4283,-0.001719
1103.2920,-0.001750
1105.1557,-0.001788
1107.0193,-0.001800
1108.8830,-0.001809
1110.7467,-0.001798
1112.6103,-0.001804
1114.4740,-0.001805
1116.3377,-0.001810
1118.2014,-0.001819
1120.0650,-0.001793
1121.9287,-0.001803
1123.7924,-0.001846
1125.6560,-0.001883
1127.5197,-0.001944
1129.3834,-0.001986
1131.2470,-0.001991
1133.1107,-0.001990
1134.9744,-0.002002
1136.8380,-0.002058
1138.7017,-0.002073
1140.5654,-0.002064
1142.4290,-0.002054
1144.2927,-0.002057
1146.1564,-0.002101
1148.0201,-0.002153
1149.8837,-0.002177
1151.7474,-0.002226
1153.6111,-0.002279
1155.4747,-0.002270
1157.3384,-0.002264
1159.2021,-0.002312
1161.0657,-0.002350
1162.9294,-0.002332
1164.7931,-0.002347
1166.6567,-0.002407
1168.5204,-0.002449
1170.3841,-0.002474
1172.2477,-0.002497
1174.1114,-0.002524
1175.9751,-0.002548
1177.8388,-0.002576
1179.7024,-0.002609
1181.5661,-0.002626
1183.4298,-0.002626
1185.2934,-0.002651
1187.1571,-0.002692
1189.0208,-0.002702
1190.8844,-0.002693
1192.7481,-0.002666
1194.6118,-0.002669
1196.4754,-0.002686
1198.3391,-0.002702
1200.2028,-0.002702
1202.0665,-0.002666
1203.9301,-0.002649
1205.7938,-0.002708
1207.6575,-0.002732
1209.5211,-0.002698
1211.3848,-0.002675
1213.2485,-0.002701
1215.1121,-0.002737
1216.9758,-0.002736
1218.8395,-0.002718
1220.7031,-0.002736
1222.5668,-0.002729
1224.4305,-0.002722
1226.2941,-0.002746
1228.1578,-0.002776
1230.0215,-0.002767
1231.8852,-0.002763
1233.7488,-0.002796
1235.6125,-0.002801
1237.4762,-0.002781
1239.3398,-0.002794
1241.2035,-0.002778
1243.0672,-0.002774
1244.9308,-0.002793
1246.7945,-0.002815
1248.6582,-0.002818
1250.5218,-0.002832
1252.3855,-0.002863
1254.2492,-0.002866
1256.1129,-0.002866
1257.9765,-0.002887
1259.8402,-0.002955
1261.7039,-0.002971
1263.5675,-0.002950
1265.4312,-0.002967
1267.2949,-0.002994
1269.1585,-0.002953
1271.0222,-0.002916
1272.8859,-0.002928
1274.7495,-0.002977
1276.6132,-0.002974
1278.4769,-0.002890
1280.3405,-0.002878
1282.2042,-0.002918
1284.0679,-0.002909
1285.9316,-0.002843
1287.7952,-0.002861
1289.6589,-0.002878
1291.5226,-0.002847
1293.3862,-0.002828
1295.2499,-0.002802
1297.1136,-0.002779
1298.9772,-0.002765
1300.8409,-0.002727
1302.7046,-0.002689
1304.5682,-0.002679
1306.4319,-0.002700
1308.2956,-0.002703
1310.1592,-0.002652
1312.0229,-0.002626
1313.8866,-0.002579
1315.7503,-0.002531
1317.6139,-0.002549
1319.4776,-0.002591
1321.3413,-0.002615
1323.2049,-0.002629
1325.0686,-0.002611
1326.9323,-0.002552
1328.7959,-0.002543
1330.6596,-0.002575
1332.5233,-0.002567
1334.3869,-0.002520
1336.2506,-0.002420
1338.1143,-0.002362
1339.9780,-0.002446
1341.8416,-0.002502
1343.7053,-0.002511
1345.5690,-0.002475
1347.4326,-0.002483
1349.2963,-0.002510
1351.1600,-0.002521
1353.0236,-0.002464
1354.8873,-0.002463
1356.7510,-0.002502
1358.6146,-0.002472
1360.4783,-0.002395
1362.3420,-0.002460
1364.2056,-0.002551
1366.0693,-0.002519
1367.9330,-0.002464
1369.7967,-0.002415
1371.6603,-0.002319
1373.5240,-0.002347
1375.3877,-0.002419
1377.2513,-0.002478
1379.1150,-0.002504
1380.9787,-0.002474
1382.8423,-0.002433
1384.7060,-0.002357
1386.5697,-0.002408
1388.4333,-0.002479
1390.2970,-0.002379
1392.1607,-0.002206
1394.0244,-0.002277
1395.8880,-0.002321
1397.7517,-0.002328
1399.6154,-0.002418
1401.4790,-0.002335
1403.3427,-0.002314
1405.2064,-0.002379
1407.0700,-0.002452
1408.9337,-0.002428
1410.7974,-0.002488
1412.6610,-0.002543
1414.5247,-0.002481
1416.3884,-0.002279
1418.2520,-0.002391
1420.1157,-0.002634
1421.9794,-0.002538
1423.8431,-0.002573
1425.7067,-0.002619
1427.5704,-0.002605
1429.4341,-0.002643
1431.2977,-0.002731
1433.1614,-0.002559
1435.0251,-0.002390
1436.8887,-0.002686
1438.7524,-0.002777
1440.6161,-0.002699
1442.4797,-0.002637
1444.3434,-0.002625
1446.2071,-0.002574
1448.0707,-0.002710
1449.9344,-0.002733
1451.7981,-0.002743
1453.6618,-0.002480
1455.5254,-0.002245
1457.3891,-0.002542
1459.2528,-0.002869
1461.1164,-0.002790
1462.9801,-0.002650
1464.8438,-0.002751
1466.7074,-0.002899
1468.5711,-0.002742
1470.4348,-0.002454
1472.2984,-0.002596
1474.1621,-0.002846
1476.0258,-0.003017
1477.8895,-0.003000
1479.7531,-0.002962
1481.6168,-0.003020
1483.4805,-0.002987
1485.3441,-0.002867
1487.2078,-0.002740
1489.0715,-0.002790
1490.9351,-0.003058
1492.7988,-0.002928
1494.6625,-0.002687
1496.5261,-0.002673
1498.3898,-0.002785
1500.2535,-0.002815
1502.1171,-0.002665
1503.9808,-0.002281
1505.8445,-0.002057
1507.7082,-0.002426
1509.5718,-0.002629
1511.4355,-0.002639
1513.2992,-0.002499
1515.1628,-0.002377
1517.0265,-0.002271
1518.8902,-0.002132
1520.7538,-0.002224
1522.6175,-0.002225
1524.4812,-0.002297
1526.3448,-0.002408
1528.2085,-0.002546
1530.0722,-0.002371
1531.9359,-0.002289
1533.7995,-0.002517
1535.6632,-0.002327
1537.5269,-0.002003
1539.3905,-0.001885
1541.2542,-0.002213
1543.1179,-0.002342
1544.9815,-0.002464
1546.8452,-0.002374
1548.7089,-0.002303
1550.5725,-0.002322
1552.4362,-0.002438
1554.2999,-0.002291
1556.1635,-0.001821
1558.0272,-0.001725
1559.8909,-0.002382
1561.7546,-0.002635
1563.6182,-0.002601
1565.4819,-0.002497
1567.3456,-0.002377
1569.2092,-0.002520
1571.0729,-0.002617
1572.9366,-0.002471
1574.8002,-0.002376
1576.6639,-0.002646
1578.5276,-0.002822
1580.3912,-0.002791
1582.2549,-0.002696
1584.1186,-0.002748
1585.9822,-0.002801
1587.8459,-0.002876
1589.7096,-0.002871
1591.5733,-0.002851
1593.4369,-0.002885
1595.3006,-0.002985
1597.1643,-0.003031
1599.0279,-0.003158
1600.8916,-0.003235
1602.7553,-0.003294
1604.6189,-0.003342
1606.4826,-0.003431
1608.3463,-0.003440
1610.2099,-0.003643
1612.0736,-0.003857
1613.9373,-0.003870
1615.8010,-0.003898
1617.6646,-0.004127
1619.5283,-0.004176
1621.3920,-0.004048
1623.2556,-0.004134
1625.1193,-0.004229
1626.9830,-0.004242
1628.8466,-0.004274
1630.7103,-0.004434
1632.5740,-0.004262
1634.4376,-0.004130
1636.3013,-0.004166
1638.1650,-0.004208
1640.0286,-0.004228
1641.8923,-0.004127
1643.7560,-0.003967
1645.6197,-0.003919
1647.4833,-0.004144
1649.3470,-0.003988
1651.2107,-0.003449
1653.0743,-0.003429
1654.9380,-0.003931
1656.8017,-0.003905
1658.6653,-0.003611
1660.5290,-0.003508
1662.3927,-0.003538
1664.2563,-0.003624
1666.1200,-0.003553
1667.9837,-0.003349
1669.8474,-0.003407
1671.7110,-0.003457
1673.5747,-0.003347
1675.4384,-0.003339
1677.3020,-0.003500
1679.1657,-0.003554
1681.0294,-0.003247
1682.8930,-0.003241
1684.7567,-0.003601
1686.6204,-0.003826
1688.4840,-0.003581
1690.3477,-0.003575
1692.2114,-0.003546
1694.0750,-0.003532
1695.9387,-0.003545
1697.8024,-0.003443
1699.6661,-0.003541
1701.5297,-0.003904
1703.3934,-0.003947
1705.2571,-0.003808
1707.1207,-0.004042
1708.9844,-0.004115
1710.8481,-0.003992
1712.7117,-0.003837
1714.5754,-0.003599
1716.4391,-0.003694
1718.3027,-0.004005
1720.1664,-0.004033
1722.0301,-0.003964
1723.8937,-0.003908
1725.7574,-0.003947
1727.6211,-0.003879
1729.4848,-0.003762
1731.3484,-0.003500
1733.2121,-0.003554
1735.0758,-0.003769
1736.9394,-0.003817
1738.8031,-0.003647
1740.6668,-0.003688
1742.5304,-0.003781
1744.3941,-0.003757
1746.2578,-0.003615
1748.1214,-0.003506
1749.9851,-0.003691
1751.8488,-0.003765
1753.7125,-0.003724
1755.5761,-0.003791
1757.4398,-0.003800
1759.3035,-0.003811
1761.1671,-0.003783
1763.0308,-0.003870
1764.8945,-0.003809
1766.7581,-0.003689
1768.6218,-0.003585
1770.4855,-0.003629
1772.3491,-0.003733
1774.2128,-0.004001
1776.0765,-0.003933
1777.9401,-0.003718
1779.8038,-0.003665
1781.6675,-0.003709
1783.5312,-0.003727
1785.3948,-0.003649
1787.2585,-0.003680
1789.1222,-0.003626
1790.9858,-0.003540
1792.8495,-0.003672
1794.7132,-0.003769
1796.5768,-0.003607
1798.4405,-0.003566
1800.3042,-0.003548
1802.1678,-0.003629
1804.0315,-0.003777
1805.8952,-0.003765
1807.7589,-0.003781
1809.6225,-0.003821
1811.4862,-0.003931
1813.3499,-0.004046
1815.2135,-0.004078
1817.0772,-0.004097
1818.9409,-0.003919
1820.8045,-0.003650
1822.6682,-0.003531
1824.5319,-0.003613
1826.3955,-0.003613
1828.2592,-0.003478
1830.1229,-0.003395
1831.9865,-0.003710
1833.8502,-0.003780
1835.7139,-0.003656
1837.5776,-0.003658
1839.4412,-0.003719
1841.3049,-0.003621
1843.1686,-0.003442
1845.0322,-0.003537
1846.8959,-0.003666
1848.7596,-0.003658
1850.6232,-0.003686
1852.4869,-0.003533
1854.3506,-0.003446
1856.2142,-0.003547
1858.0779,-0.003614
1859.9416,-0.003652
1861.8052,-0.003610
1863.6689,-0.003577
1865.5326,-0.003547
1867.3963,-0.003453
1869.2599,-0.003458
1871.1236,-0.003517
1872.9873,-0.003347
1874.8509,-0.003238
1876.7146,-0.003398
1878.5783,-0.003555
1880.4419,-0.003648
1882.3056,-0.003676
1884.1693,-0.003458
1886.0329,-0.003257
1887.8966,-0.003318
1889.7603,-0.003464
1891.6240,-0.003553
1893.4876,-0.003469
1895.3513,-0.003354
1897.2150,-0.003245
1899.0786,-0.003316
1900.9423,-0.003467
1902.8060,-0.003439
1904.6696,-0.003365
1906.5333,-0.003459
1908.3970,-0.003450
1910.2606,-0.003426
1912.1243,-0.003326
1913.9880,-0.002997
1915.8516,-0.003086
1917.7153,-0.003380
1919.5790,-0.003384
1921.4427,-0.003201
1923.3063,-0.003233
1925.1700,-0.003277
1927.0337,-0.003230
1928.8973,-0.003478
1930.7610,-0.003458
1932.6247,-0.003156
1934.4883,-0.003146
1936.3520,-0.003170
1938.2157,-0.003314
1940.0793,-0.003590
1941.9430,-0.003459
1943.8067,-0.003132
1945.6704,-0.003032
1947.5340,-0.003064
1949.3977,-0.003052
1951.2614,-0.002999
1953.1250,-0.002831
1954.9887,-0.002781
1956.8524,-0.002993
1958.7160,-0.002798
1960.5797,-0.002404
1962.4434,-0.002351
1964.3070,-0.002493
1966.1707,-0.002219
1968.0344,-0.002359
1969.8980,-0.002638
1971.7617,-0.002167
1973.6254,-0.001502
1975.4891,-0.001068
1977.3527,-0.000270
1979.2164,0.000519
1981.0801,0.000291
1982.9437,-0.000378
1984.8074,-0.000714
1986.6711,-0.000764
1988.5347,-0.000984
1990.3984,-0.001586
1992.2621,-0.001926
1994.1257,-0.001766
1995.9894,-0.001520
1997.8531,-0.001544
1999.7167,-0.001624
2001.5804,-0.001751
2003.4441,-0.002269
2005.3078,-0.002830
2007.1714,-0.002513
2009.0351,-0.002159
2010.8988,-0.002175
2012.7624,-0.002072
2014.6261,-0.001616
2016.4898,-0.001467
2018.3534,-0.001199
2020.2171,-0.001216
2022.0808,-0.001579
2023.9444,-0.001876
2025.8081,-0.001455
2027.6718,-0.001011
2029.5355,-0.000714
2031.3991,-0.000789
2033.2628,-0.000841
2035.1265,-0.000441
2036.9901,-0.000303
2038.8538,-0.000598
2040.7175,-0.000998
2042.5811,-0.001251
2044.4448,-0.001154
2046.3085,-0.001361
2048.1721,-0.001143
2050.0358,-0.000372
2051.8995,-0.000613
2053.7631,-0.001785
2055.6268,-0.002048
2057.4905,-0.001810
2059.3542,-0.001742
2061.2178,-0.002127
2063.0815,-0.002262
2064.9452,-0.002186
2066.8088,-0.002373
2068.6725,-0.002369
2070.5362,-0.002256
2072.3998,-0.002280
2074.2635,-0.002239
2076.1272,-0.002254
2077.9908,-0.002215
2079.8545,-0.001915
2081.7182,-0.001887
2083.5819,-0.002297
2085.4455,-0.002483
2087.3092,-0.002706
2089.1729,-0.002924
2091.0365,-0.002930
2092.9002,-0.002864
2094.7639,-0.002704
2096.6275,-0.002413
2098.4912,-0.002573
2100.3549,-0.002770
2102.2185,-0.002880
2104.0822,-0.002887
2105.9459,-0.002672
2107.8095,-0.002567
2109.6732,-0.002619
2111.5369,-0.002468
2113.4006,-0.002579
2115.2642,-0.002863
2117.1279,-0.002854
2118.9916,-0.002964
2120.8552,-0.003302
2122.7189,-0.003440
2124.5826,-0.003697
2126.4462,-0.003896
2128.3099,-0.003996
2130.1736,-0.004228
2132.0372,-0.004502
2133.9009,-0.004429
2135.7646,-0.003817
2137.6282,-0.003330
2139.4919,-0.003597
2141.3556,-0.003908
2143.2193,-0.003481
2145.0829,-0.002703
2146.9466,-0.002880
2148.8103,-0.002948
2150.6739,-0.002716
2152.5376,-0.002891
2154.4013,-0.003055
2156.2649,-0.003159
2158.1286,-0.002707
2159.9923,-0.000842
2161.8559,0.000482
2163.7196,0.000311
2165.5833,-0.000379
2167.4470,0.000006
2169.3106,-0.000004
2171.1743,-0.000911
2173.0380,-0.001406
2174.9016,-0.001170
2176.7653,-0.000869
2178.6290,-0.000954
2180.4926,-0.001242
2182.3563,-0.000879
2184.2200,-0.000367
2186.0836,-0.000310
2187.9473,-0.000706
2189.8110,-0.001295
2191.6746,-0.001738
2193.5383,-0.001632
2195.4020,-0.001412
2197.2657,-0.001542
2199.1293,-0.001669
2200.9930,-0.001573
2202.8567,-0.001633
2204.7203,-0.001389
2206.5840,-0.001241
2208.4477,-0.001622
2210.3113,-0.001952
2212.1750,-0.001788
2214.0387,-0.001511
2215.9023,-0.001485
2217.7660,-0.001802
2219.6297,-0.001886
2221.4934,-0.001700
2223.3570,-0.001447
2225.2207,-0.001372
2227.0844,-0.001689
2228.9480,-0.002059
2230.8117,-0.001944
2232.6754,-0.001675
2234.5390,-0.001709
2236.4027,-0.001956
2238.2664,-0.001923
2240.1300,-0.001819
2241.9937,-0.001830
2243.8574,-0.001986
2245.7210,-0.002302
2247.5847,-0.002244
2249.4484,-0.001763
2251.3121,-0.001829
2253.1757,-0.002127
2255.0394,-0.002172
2256.9031,-0.002089
2258.7667,-0.002039
2260.6304,-0.002125
2262.4941,-0.002074
2264.3577,-0.001707
2266.2214,-0.001599
2268.0851,-0.001677
2269.9487,-0.001759
2271.8124,-0.001881
2273.6761,-0.002108
2275.5397,-0.002097
2277.4034,-0.001925
2279.2671,-0.001716
2281.1308,-0.001565
2282.9944,-0.001574
2284.8581,-0.001600
2286.7218,-0.001679
2288.5854,-0.001737
2290.4491,-0.001790
2292.3128,-0.001959
2294.1764,-0.002029
2296.0401,-0.002088
2297.9038,-0.002204
2299.7674,-0.002323
2301.6311,-0.002173
2303.4948,-0.002057
2305.3585,-0.002095
2307.2221,-0.002025
2309.0858,-0.002013
2310.9495,-0.002049
2312.8131,-0.001846
2314.6768,-0.001733
2316.5405,-0.001678
2318.4041,-0.001453
2320.2678,-0.001079
2322.1315,-0.000680
2323.9951,-0.000576
2325.8588,-0.001274
2327.7225,-0.002050
2329.5861,-0.002364
2331.4498,-0.002318
2333.3135,-0.002117
2335.1772,-0.001956
2337.0408,-0.002026
2338.9045,-0.002082
2340.7682,-0.002145
2342.6318,-0.002183
2344.4955,-0.002297
2346.3592,-0.002531
2348.2228,-0.002609
2350.0865,-0.002449
2351.9502,-0.002415
2353.8138,-0.002253
2355.6775,-0.001929
2357.5412,-0.001726
2359.4049,-0.001769
2361.2685,-0.001736
2363.1322,-0.001811
2364.9959,-0.002134
2366.8595,-0.002347
2368.7232,-0.002550
2370.5869,-0.002759
2372.4505,-0.002817
2374.3142,-0.002927
2376.1779,-0.003169
2378.0415,-0.003358
2379.9052,-0.003452
2381.7689,-0.003638
2383.6325,-0.003795
2385.4962,-0.003838
2387.3599,-0.003815
2389.2236,-0.003825
2391.0872,-0.003828
2392.9509,-0.003837
2394.8146,-0.003863
2396.6782,-0.003839
2398.5419,-0.003775
2400.4056,-0.003771
2402.2692,-0.003762
2404.1329,-0.003815
2405.9966,-0.003767
2407.8602,-0.003608
2409.7239,-0.003490
2411.5876,-0.003480
2413.4512,-0.003587
2415.3149,-0.003669
2417.1786,-0.003595
2419.0423,-0.003560
2420.9059,-0.003465
2422.7696,-0.003418
2424.6333,-0.003457
2426.4969,-0.003401
2428.3606,-0.003320
2430.2243,-0.003376
2432.0879,-0.003375
2433.9516,-0.003295
2435.8153,-0.003173
2437.6789,-0.003138
2439.5426,-0.003130
2441.4063,-0.003036
2443.2700,-0.002976
2445.1336,-0.003073
2446.9973,-0.003133
2448.8610,-0.003097
2450.7246,-0.003076
2452.5883,-0.003025
2454.4520,-0.002882
2456.3156,-0.002931
2458.1793,-0.003087
2460.0430,-0.003084
2461.9066,-0.003005
2463.7703,-0.003019
2465.6340,-0.002990
2467.4976,-0.003042
2469.3613,-0.003235
2471.2250,-0.003402
2473.0887,-0.003367
2474.9523,-0.003284
2476.8160,-0.003275
2478.6797,-0.003244
2480.5433,-0.003072
2482.4070,-0.003052
2484.2707,-0.003159
2486.1343,-0.003225
2487.9980,-0.003281
2489.8617,-0.003281
2491.7253,-0.003208
2493.5890,-0.003151
2495.4527,-0.003119
2497.3164,-0.003184
2499.1800,-0.003110
2501.0437,-0.003070
2502.9074,-0.003082
2504.7710,-0.003105
2506.6347,-0.003164
2508.4984,-0.003196
2510.3620,-0.003199
2512.2257,-0.003140
2514.0894,-0.003038
2515.9530,-0.002983
2517.8167,-0.002986
2519.6804,-0.002965
2521.5440,-0.002987
2523.4077,-0.003074
2525.2714,-0.002945
2527.1351,-0.002896
2528.9987,-0.002968
2530.8624,-0.003069
2532.7261,-0.003238
2534.5897,-0.003220
2536.4534,-0.003049
2538.3171,-0.003037
2540.1807,-0.003044
2542.0444,-0.002948
2543.9081,-0.002939
2545.7717,-0.003032
2547.6354,-0.003147
2549.4991,-0.003200
2551.3627,-0.003080
2553.2264,-0.002919
2555.0901,-0.002918
2556.9538,-0.003063
2558.8174,-0.003161
2560.6811,-0.003143
2562.5448,-0.003034
2564.4084,-0.002985
2566.2721,-0.002934
2568.1358,-0.003017
2569.9994,-0.003085
2571.8631,-0.002946
2573.7268,-0.002927
2575.5904,-0.003120
2577.4541,-0.003075
2579.3178,-0.002987
2581.1815,-0.002970
2583.0451,-0.002978
2584.9088,-0.003018
2586.7725,-0.003058
2588.6361,-0.003036
2590.4998,-0.002915
2592.3635,-0.002909
2594.2271,-0.003023
2596.0908,-0.002985
2597.9545,-0.002947
2599.8181,-0.002982
2601.6818,-0.002970
2603.5455,-0.002834
2605.4091,-0.002835
2607.2728,-0.002882
2609.1365,-0.002766
2611.0002,-0.002742
2612.8638,-0.002813
2614.7275,-0.002834
2616.5912,-0.002791
2618.4548,-0.002774
2620.3185,-0.002805
2622.1822,-0.002795
2624.0458,-0.002830
2625.9095,-0.002901
2627.7732,-0.002948
2629.6368,-0.002926
2631.5005,-0.002901
2633.3642,-0.002871
2635.2279,-0.002945
2637.0915,-0.002982
2638.9552,-0.002973
2640.8189,-0.002979
2642.6825,-0.002984
2644.5462,-0.002979
2646.4099,-0.003005
2648.2735,-0.003028
2650.1372,-0.003044
2652.0009,-0.003063
2653.8645,-0.003113
2655.7282,-0.003153
2657.5919,-0.003285
2659.4555,-0.003427
2661.3192,-0.003528
2663.1829,-0.003611
2665.0466,-0.003687
2666.9102,-0.003773
2668.7739,-0.003858
2670.6376,-0.003843
2672.5012,-0.003808
2674.3649,-0.003785
2676.2286,-0.003799
2678.0922,-0.003845
2679.9559,-0.003840
2681.8196,-0.003770
2683.6832,-0.003762
2685.5469,-0.003789
2687.4106,-0.003868
2689.2742,-0.003804
2691.1379,-0.003723
2693.0016,-0.003811
2694.8653,-0.003920
2696.7289,-0.003879
2698.5926,-0.003860
2700.4563,-0.003863
2702.3199,-0.003789
2704.1836,-0.003747
2706.0473,-0.003801
2707.9109,-0.003792
2709.7746,-0.003770
2711.6383,-0.003762
2713.5019,-0.003807
2715.3656,-0.003799
2717.2293,-0.003741
2719.0930,-0.003670
2720.9566,-0.003652
2722.8203,-0.003741
2724.6840,-0.003789
2726.5476,-0.003748
2728.4113,-0.003765
2730.2750,-0.003765
2732.1386,-0.003700
2734.0023,-0.003668
2735.8660,-0.003755
2737.7296,-0.003795
2739.5933,-0.003777
2741.4570,-0.003725
2743.3206,-0.003743
2745.1843,-0.003787
2747.0480,-0.003740
2748.9117,-0.003700
2750.7753,-0.003707
2752.6390,-0.003697
2754.5027,-0.003724
2756.3663,-0.003780
2758.2300,-0.003800
2760.0937,-0.003754
2761.9573,-0.003714
2763.8210,-0.003787
2765.6847,-0.003778
2767.5483,-0.003648
2769.4120,-0.003655
2771.2757,-0.003768
2773.1394,-0.003764
2775.0030,-0.003668
2776.8667,-0.003757
2778.7304,-0.003804
2780.5940,-0.003707
2782.4577,-0.003700
2784.3214,-0.003725
2786.1850,-0.003699
2788.0487,-0.003692
2789.9124,-0.003653
2791.7760,-0.003697
2793.6397,-0.003725
2795.5034,-0.003753
2797.3670,-0.003735
2799.2307,-0.003749
2801.0944,-0.003757
2802.9581,-0.003678
2804.8217,-0.003663
2806.6854,-0.003629
2808.5491,-0.003667
2810.4127,-0.003708
2812.2764,-0.003712
2814.1401,-0.003649
2816.0037,-0.003595
2817.8674,-0.003679
2819.7311,-0.003673
2821.5947,-0.003577
2823.4584,-0.003578
2825.3221,-0.003673
2827.1857,-0.003699
2829.0494,-0.003741
2830.9131,-0.003602
2832.7768,-0.003459
2834.6404,-0.003539
2836.5041,-0.003596
2838.3678,-0.003613
2840.2314,-0.003694
2842.0951,-0.003612
2843.9588,-0.003503
2845.8224,-0.003472
2847.6861,-0.003428
2849.5498,-0.003359
2851.4134,-0.003323
2853.2771,-0.003397
2855.1408,-0.003567
2857.0045,-0.003605
2858.8681,-0.003567
2860.7318,-0.003466
2862.5955,-0.003414
2864.4591,-0.003373
2866.3228,-0.003405
2868.1865,-0.003473
2870.0501,-0.003507
2871.9138,-0.003479
2873.7775,-0.003469
2875.6411,-0.003470
2877.5048,-0.003510
2879.3685,-0.003523
2881.2321,-0.003511
2883.0958,-0.003513
2884.9595,-0.003558
2886.8232,-0.003563
2888.6868,-0.003565
2890.5505,-0.003544
2892.4142,-0.003479
2894.2778,-0.003468
2896.1415,-0.003515
2898.0052,-0.003520
2899.8688,-0.003595
2901.7325,-0.003566
2903.5962,-0.003425
2905.4598,-0.003328
2907.3235,-0.003329
2909.1872,-0.003311
2911.0509,-0.003278
2912.9145,-0.003344
2914.7782,-0.003390
2916.6419,-0.003361
2918.5055,-0.003284
2920.3692,-0.003243
2922.2329,-0.003262
2924.0965,-0.003277
2925.9602,-0.003286
2927.8239,-0.003367
2929.6875,-0.003380
2931.5512,-0.003329
2933.4149,-0.003336
2935.2785,-0.003345
2937.1422,-0.003363
2939.0059,-0.003415
2940.8696,-0.003451
2942.7332,-0.003423
2944.5969,-0.003427
2946.4606,-0.003407
2948.3242,-0.003427
2950.1879,-0.003508
2952.0516,-0.003532
2953.9152,-0.003664
2955.7789,-0.003678
2957.6426,-0.003508
2959.5062,-0.003526
2961.3699,-0.003652
2963.2336,-0.003708
2965.0972,-0.003728
2966.9609,-0.003765
2968.8246,-0.003788
2970.6883,-0.003810
2972.5519,-0.003763
2974.4156,-0.003703
2976.2793,-0.003783
2978.1429,-0.003966
2980.0066,-0.003995
2981.8703,-0.003842
2983.7339,-0.003748
2985.5976,-0.003837
2987.4613,-0.003913
2989.3249,-0.003955
2991.1886,-0.003964
2993.0523,-0.003994
2994.9160,-0.003946
2996.7796,-0.003997
2998.6433,-0.004035
3000.5070,-0.003954
3002.3706,-0.003929
3004.2343,-0.003937
3006.0980,-0.003953
3007.9616,-0.004034
3009.8253,-0.004071
3011.6890,-0.004058
3013.5526,-0.004121
3015.4163,-0.004161
3017.2800,-0.004072
3019.1436,-0.004012
3021.0073,-0.004071
3022.8710,-0.004111
3024.7347,-0.004145
3026.5983,-0.004237
3028.4620,-0.004135
3030.3257,-0.003961
3032.1893,-0.003985
3034.0530,-0.004151
3035.9167,-0.004258
3037.7803,-0.004297
3039.6440,-0.004269
3041.5077,-0.004245
3043.3713,-0.004225
3045.2350,-0.004288
3047.0987,-0.004336
3048.9624,-0.004295
3050.8260,-0.004271
3052.6897,-0.004226
3054.5534,-0.004237
3056.4170,-0.004251
3058.2807,-0.004195
3060.1444,-0.004269
3062.0080,-0.004283
3063.8717,-0.004343
3065.7354,-0.004426
3067.5990,-0.004440
3069.4627,-0.004401
3071.3264,-0.004429
3073.1900,-0.004457
3075.0537,-0.004515
3076.9174,-0.004553
3078.7811,-0.004708
3080.6447,-0.004749
3082.5084,-0.004604
3084.3721,-0.004528
3086.2357,-0.004584
3088.0994,-0.004699
3089.9631,-0.004757
3091.8267,-0.004748
3093.6904,-0.004802
3095.5541,-0.004737
3097.4177,-0.004645
3099.2814,-0.004642
3101.1451,-0.004777
3103.0087,-0.004952
3104.8724,-0.004961
3106.7361,-0.004934
3108.5998,-0.004942
3110.4634,-0.005035
3112.3271,-0.005140
3114.1908,-0.005021
3116.0544,-0.004864
3117.9181,-0.004905
3119.7818,-0.005000
3121.6454,-0.005118
3123.5091,-0.005106
3125.3728,-0.005024
3127.2364,-0.005112
3129.1001,-0.005290
3130.9638,-0.005296
3132.8275,-0.005203
3134.6911,-0.005333
3136.5548,-0.005372
3138.4185,-0.005215
3140.2821,-0.005274
3142.1458,-0.005430
3144.0095,-0.005461
3145.8731,-0.005494
3147.7368,-0.005547
3149.6005,-0.005525
3151.4641,-0.005543
3153.3278,-0.005506
3155.1915,-0.005474
3157.0551,-0.005488
3158.9188,-0.005608
3160.7825,-0.005687
3162.6462,-0.005601
3164.5098,-0.005572
3166.3735,-0.005703
3168.2372,-0.005866
3170.1008,-0.006007
3171.9645,-0.006101
3173.8282,-0.005995
3175.6918,-0.005951
3177.5555,-0.005986
3179.4192,-0.006035
3181.2828,-0.006067
3183.1465,-0.006036
3185.0102,-0.006179
3186.8739,-0.006322
3188.7375,-0.006247
3190.6012,-0.006248
3192.4649,-0.006357
3194.3285,-0.006227
3196.1922,-0.006208
3198.0559,-0.006446
3199.9195,-0.006601
3201.7832,-0.006569
3203.6469,-0.006559
3205.5105,-0.006707
3207.3742,-0.006849
3209.2379,-0.006806
3211.1015,-0.006756
3212.9652,-0.006837
3214.8289,-0.006891
3216.6926,-0.006802
3218.5562,-0.006835
3220.4199,-0.006885
3222.2836,-0.007017
3224.1472,-0.007111
3226.0109,-0.007180
3227.8746,-0.007099
3229.7382,-0.007047
3231.6019,-0.007154
3233.4656,-0.007124
3235.3292,-0.007146
3237.1929,-0.007183
3239.0566,-0.007251
3240.9202,-0.007447
3242.7839,-0.007458
3244.6476,-0.007364
3246.5113,-0.007450
3248.3749,-0.007570
3250.2386,-0.007553
3252.1023,-0.007610
3253.9659,-0.007656
3255.8296,-0.007610
3257.6933,-0.007716
3259.5569,-0.007730
3261.4206,-0.007831
3263.2843,-0.007898
3265.1479,-0.007829
3267.0116,-0.007818
3268.8753,-0.007858
3270.7390,-0.007879
3272.6026,-0.007847
3274.4663,-0.007919
3276.3300,-0.007954
3278.1936,-0.007967
3280.0573,-0.008054
3281.9210,-0.008128
3283.7846,-0.008144
3285.6483,-0.008041
3287.5120,-0.007980
3289.3756,-0.008263
3291.2393,-0.008491
3293.1030,-0.008198
3294.9666,-0.008283
3296.8303,-0.008484
3298.6940,-0.008351
3300.5577,-0.008435
3302.4213,-0.008488
3304.2850,-0.008457
3306.1487,-0.008557
3308.0123,-0.008685
3309.8760,-0.008871
3311.7397,-0.008909
3313.6033,-0.008701
3315.4670,-0.008676
3317.3307,-0.008787
3319.1943,-0.008943
3321.0580,-0.009058
3322.9217,-0.009073
3324.7854,-0.009114
3326.6490,-0.009055
3328.5127,-0.008912
3330.3764,-0.009015
3332.2400,-0.009279
3334.1037,-0.009438
3335.9674,-0.009500
3337.8310,-0.009336
3339.6947,-0.009240
3341.5584,-0.009511
3343.4220,-0.009853
3345.2857,-0.009814
3347.1494,-0.009629
3349.0130,-0.009625
3350.8767,-0.009684
3352.7404,-0.009846
3354.6041,-0.009985
3356.4677,-0.009964
3358.3314,-0.009906
3360.1951,-0.010010
3362.0587,-0.010037
3363.9224,-0.010153
3365.7861,-0.010272
3367.6497,-0.010044
3369.5134,-0.009813
3371.3771,-0.010154
3373.2407,-0.010666
3375.1044,-0.010694
3376.9681,-0.010588
3378.8317,-0.010783
3380.6954,-0.010668
3382.5591,-0.010598
3384.4228,-0.010851
3386.2864,-0.010868
3388.1501,-0.010569
3390.0138,-0.010460
3391.8774,-0.010709
3393.7411,-0.010679
3395.6048,-0.010610
3397.4684,-0.010787
3399.3321,-0.010889
3401.1958,-0.010886
3403.0594,-0.010953
3404.9231,-0.011114
3406.7868,-0.011175
3408.6505,-0.011231
3410.5141,-0.011035
3412.3778,-0.010895
3414.2415,-0.011011
3416.1051,-0.011086
3417.9688,-0.011099
3419.8325,-0.011013
3421.6961,-0.010879
3423.5598,-0.010966
3425.4235,-0.010918
3427.2871,-0.010803
3429.1508,-0.010894
3431.0145,-0.011125
3432.8781,-0.011148
3434.7418,-0.011173
3436.6055,-0.011345
3438.4692,-0.011294
3440.3328,-0.011344
3442.1965,-0.011291
3444.0602,-0.011071
3445.9238,-0.011130
3447.7875,-0.011087
3449.6512,-0.010917
3451.5148,-0.011100
3453.3785,-0.011240
3455.2422,-0.010842
3457.1058,-0.010582
3458.9695,-0.010829
3460.8332,-0.011006
3462.6969,-0.011178
3464.5605,-0.011501
3466.4242,-0.011463
3468.2879,-0.011278
3470.1515,-0.011110
3472.0152,-0.010934
3473.8789,-0.011195
3475.7425,-0.011320
3477.6062,-0.011218
3479.4699,-0.011129
3481.3335,-0.010906
3483.1972,-0.010858
3485.0609,-0.010884
3486.9245,-0.010687
3488.7882,-0.010532
3490.6519,-0.010492
3492.5156,-0.010501
3494.3792,-0.010602
3496.2429,-0.010414
3498.1066,-0.010455
3499.9702,-0.010515
3501.8339,-0.010431
3503.6976,-0.010261
3505.5612,-0.010384
3507.4249,-0.010390
3509.2886,-0.010159
3511.1522,-0.010197
3513.0159,-0.010164
3514.8796,-0.009902
3516.7432,-0.009775
3518.6069,-0.009849
3520.4706,-0.010161
3522.3343,-0.010151
3524.1979,-0.009904
3526.0616,-0.009851
3527.9253,-0.009789
3529.7889,-0.009550
3531.6526,-0.009525
3533.5163,-0.009649
3535.3799,-0.009752
3537.2436,-0.009661
3539.1073,-0.009532
3540.9709,-0.009431
3542.8346,-0.009430
3544.6983,-0.009330
3546.5620,-0.009186
3548.4256,-0.009096
3550.2893,-0.009074
3552.1530,-0.008893
3554.0166,-0.008974
3555.8803,-0.008868
3557.7440,-0.008828
3559.6076,-0.008968
3561.4713,-0.008778
3563.3350,-0.008743
3565.1986,-0.008831
3567.0623,-0.008655
3568.9260,-0.008648
3570.7896,-0.008602
3572.6533,-0.008238
3574.5170,-0.007978
3576.3807,-0.008049
3578.2443,-0.008054
3580.1080,-0.007850
3581.9717,-0.007766
3583.8353,-0.007830
3585.6990,-0.007636
3587.5627,-0.007296
3589.4263,-0.007425
3591.2900,-0.007786
3593.1537,-0.007618
3595.0173,-0.007265
3596.8810,-0.007003
3598.7447,-0.006929
3600.6084,-0.006956
3602.4720,-0.007092
3604.3357,-0.007013
3606.1994,-0.006833
3608.0630,-0.006778
3609.9267,-0.006802
3611.7904,-0.006504
3613.6540,-0.006280
3615.5177,-0.006506
3617.3814,-0.006529
3619.2450,-0.006289
3621.1087,-0.006200
3622.9724,-0.006048
3624.8360,-0.005859
3626.6997,-0.005652
3628.5634,-0.005470
3630.4271,-0.005690
3632.2907,-0.005969
3634.1544,-0.005721
3636.0181,-0.005655
3637.8817,-0.005485
3639.7454,-0.005520
3641.6091,-0.005495
3643.4727,-0.005461
3645.3364,-0.005436
3647.2001,-0.004990
3649.0637,-0.004616
3650.9274,-0.004703
3652.7911,-0.004908
3654.6547,-0.004827
3656.5184,-0.004578
3658.3821,-0.004767
3660.2458,-0.004721
3662.1094,-0.004685
3663.9731,-0.004785
3665.8368,-0.004817
3667.7004,-0.004428
3669.5641,-0.004059
3671.4278,-0.004172
3673.2914,-0.004187
3675.1551,-0.003682
3677.0188,-0.004029
3678.8824,-0.004271
3680.7461,-0.004040
3682.6098,-0.004042
3684.4735,-0.004037
3686.3371,-0.003915
3688.2008,-0.003705
3690.0645,-0.003886
3691.9281,-0.004073
3693.7918,-0.003916
3695.6555,-0.003787
3697.5191,-0.003892
3699.3828,-0.003894
3701.2465,-0.003623
3703.1101,-0.003815
3704.9738,-0.003946
3706.8375,-0.003874
3708.7011,-0.003755
3710.5648,-0.003559
3712.4285,-0.003639
3714.2922,-0.003897
3716.1558,-0.003799
3718.0195,-0.003705
3719.8832,-0.003650
3721.7468,-0.003512
3723.6105,-0.003497
3725.4742,-0.003623
3727.3378,-0.003674
3729.2015,-0.003908
3731.0652,-0.003581
3732.9288,-0.003221
3734.7925,-0.003414
3736.6562,-0.003750
3738.5199,-0.003983
3740.3835,-0.003669
3742.2472,-0.003273
3744.1109,-0.003107
3745.9745,-0.003635
3747.8382,-0.003926
3749.7019,-0.003445
3751.5655,-0.003498
3753.4292,-0.003404
3755.2929,-0.003673
3757.1565,-0.003691
3759.0202,-0.003760
3760.8839,-0.003713
3762.7475,-0.003714
3764.6112,-0.003542
3766.4749,-0.003655
3768.3386,-0.003797
3770.2022,-0.003692
3772.0659,-0.003788
3773.9296,-0.003813
3775.7932,-0.003680
3777.6569,-0.003662
3779.5206,-0.003496
3781.3842,-0.003722
3783.2479,-0.003803
3785.1116,-0.003692
3786.9752,-0.003669
3788.8389,-0.003836
3790.7026,-0.003924
3792.5662,-0.003846
3794.4299,-0.003778
3796.2936,-0.003801
3798.1573,-0.003667
3800.0209,-0.003445
3801.8846,-0.003295
3803.7483,-0.003878
3805.6119,-0.003922
3807.4756,-0.003891
3809.3393,-0.004148
3811.2029,-0.004175
3813.0666,-0.004062
3814.9303,-0.003768
3816.7939,-0.003552
3818.6576,-0.003771
3820.5213,-0.003298
3822.3850,-0.003707
3824.2486,-0.004173
3826.1123,-0.003967
3827.9760,-0.003949
3829.8396,-0.003970
3831.7033,-0.003775
3833.5670,-0.003892
3835.4306,-0.003574
3837.2943,-0.003371
3839.1580,-0.003665
3841.0216,-0.003972
3842.8853,-0.003802
3844.7490,-0.003999
3846.6126,-0.004199
3848.4763,-0.003918
3850.3400,-0.003567
3852.2037,-0.003609
3854.0673,-0.003836
3855.9310,-0.004401
3857.7947,-0.004208
3859.6583,-0.004079
3861.5220,-0.003938
3863.3857,-0.003912
3865.2493,-0.003661
3867.1130,-0.003662
3868.9767,-0.003523
3870.8403,-0.003873
3872.7040,-0.004236
3874.5677,-0.003908
3876.4314,-0.003990
3878.2950,-0.003929
3880.1587,-0.003803
3882.0224,-0.004033
3883.8860,-0.003933
3885.7497,-0.003705
3887.6134,-0.003952
3889.4770,-0.003970
3891.3407,-0.003792
3893.2044,-0.003971
3895.0680,-0.003905
3896.9317,-0.003935
3898.7954,-0.003872
3900.6590,-0.003767
3902.5227,-0.003649
3904.3864,-0.003729
3906.2501,-0.003949
3908.1137,-0.004086
3909.9774,-0.004082
3911.8411,-0.004053
3913.7047,-0.003899
3915.5684,-0.003828
3917.4321,-0.003936
3919.2957,-0.004025
3921.1594,-0.003754
3923.0231,-0.003725
3924.8867,-0.003952
3926.7504,-0.004226
3928.6141,-0.004002
3930.4777,-0.003880
3932.3414,-0.003986
3934.2051,-0.004239
3936.0688,-0.004234
3937.9324,-0.004069
3939.7961,-0.003949
3941.6598,-0.003989
3943.5234,-0.003999
3945.3871,-0.003954
3947.2508,-0.003833
3949.1144,-0.003966
3950.9781,-0.004018
3952.8418,-0.004033
3954.7054,-0.004043
3956.5691,-0.004060
3958.4328,-0.003983
3960.2965,-0.003966
3962.1601,-0.003946
3964.0238,-0.003964
3965.8875,-0.003977
3967.7511,-0.004098
3969.6148,-0.004185
3971.4785,-0.004241
3973.3421,-0.004086
3975.2058,-0.004074
3977.0695,-0.003989
3978.9331,-0.004009
3980.7968,-0.004116
3982.6605,-0.004129
3984.5241,-0.004049
3986.3878,-0.004003
3988.2515,-0.003963
3990.1152,-0.004082
3991.9788,-0.004199
3993.8425,-0.004205
3995.7062,-0.004048
3997.5698,-0.004103
3999.4335,-0.004172
