Wavenumber,Intensity
650.4205,0.027944
652.2841,0.028161
654.1478,0.026600
656.0115,0.025280
657.8751,0.025257
659.7388,0.025522
661.6025,0.025422
663.4661,0.024812
665.3298,0.023931
667.1935,0.024458
669.0571,0.026534
670.9208,0.025359
672.7845,0.024328
674.6481,0.023564
676.5118,0.022982
678.3755,0.022986
680.2392,0.023032
682.1028,0.022946
683.9665,0.022736
685.8302,0.022364
687.6938,0.022229
689.5575,0.022141
691.4212,0.021814
693.2848,0.021189
695.1485,0.020973
697.0122,0.021166
698.8758,0.020887
700.7395,0.020586
702.6032,0.020677
704.4669,0.020778
706.3305,0.020383
708.1942,0.019947
710.0579,0.019804
711.9215,0.019416
713.7852,0.019204
715.6489,0.019163
717.5125,0.019061
719.3762,0.019096
721.2399,0.019189
723.1035,0.019025
724.9672,0.018857
726.8309,0.018651
728.6945,0.018617
730.5582,0.018690
732.4219,0.018418
734.2856,0.018028
736.1492,0.017670
738.0129,0.017537
739.8766,0.017650
741.7402,0.017775
743.6039,0.017839
745.4676,0.017744
747.3312,0.017406
749.1949,0.016921
751.0586,0.016633
752.9222,0.016475
754.7859,0.016350
756.6496,0.016233
758.5132,0.016106
760.3769,0.016175
762.2406,0.016036
764.1043,0.015602
765.9679,0.015433
767.8316,0.015525
769.6953,0.015548
771.5589,0.015273
773.4226,0.014893
775.2863,0.014552
777.1499,0.014381
779.0136,0.014461
780.8773,0.014366
782.7409,0.014041
784.6046,0.013804
786.4683,0.013563
788.3320,0.013352
790.1956,0.013308
792.0593,0.013131
793.9230,0.013007
795.7866,0.012968
797.6503,0.012696
799.5140,0.012362
801.3776,0.012275
803.2413,0.012157
805.1050,0.011849
806.9686,0.011685
808.8323,0.011511
810.6960,0.011242
812.5596,0.011092
814.4233,0.010952
816.2870,0.010756
818.1507,0.010537
820.0143,0.010446
821.8780,0.010395
823.7417,0.010222
825.6053,0.010059
827.4690,0.009856
829.3327,0.009602
831.1963,0.009465
833.0600,0.009494
834.9237,0.009446
836.7873,0.009196
838.6510,0.008884
840.5147,0.008733
842.3784,0.008660
844.2420,0.008494
846.1057,0.008327
847.9694,0.008128
849.8330,0.007961
851.6967,0.007865
853.5604,0.007737
855.4240,0.007527
857.2877,0.007295
859.1514,0.007219
861.0150,0.007236
862.8787,0.007133
864.7424,0.006998
866.6060,0.006792
868.4697,0.006605
870.3334,0.006576
872.1971,0.006519
874.0607,0.006324
875.9244,0.006188
877.7881,0.006165
879.6517,0.006089
881.5154,0.006007
883.3791,0.005961
885.2427,0.005841
887.1064,0.005651
888.9701,0.005589
890.8337,0.005554
892.6974,0.005420
894.5611,0.005292
896.4247,0.005153
898.2884,0.005086
900.1521,0.005054
902.0158,0.004985
903.8794,0.004888
905.7431,0.004789
907.6068,0.004728
909.4704,0.004598
911.3341,0.004436
913.1978,0.004448
915.0614,0.004478
916.9251,0.004420
918.7888,0.004385
920.6524,0.004319
922.5161,0.004198
924.3798,0.004118
926.2435,0.004081
928.1071,0.004048
929.9708,0.004042
931.8345,0.003958
933.6981,0.003810
935.5618,0.003782
937.4255,0.003827
939.2891,0.003821
941.1528,0.003736
943.0165,0.003668
944.8801,0.003650
946.7438,0.003616
948.6075,0.003602
950.4711,0.003582
952.3348,0.003477
954.1985,0.003416
956.0622,0.003443
957.9258,0.003460
959.7895,0.003416
961.6532,0.003381
963.5168,0.003376
965.3805,0.003347
967.2442,0.003360
969.1078,0.003444
970.9715,0.003538
972.8352,0.003555
974.6988,0.003510
976.5625,0.003511
978.4262,0.003580
980.2899,0.003597
982.1535,0.003569
984.0172,0.003606
985.8809,0.003714
987.7445,0.003742
989.6082,0.003730
991.4719,0.003755
993.3355,0.003741
995.1992,0.003730
997.0629,0.003758
998.9265,0.003794
1000.7902,0.003824
1002.6539,0.003898
1004.5175,0.003946
1006.3812,0.003957
1008.2449,0.003978
1010.1086,0.004014
1011.9722,0.004089
1013.8359,0.004196
1015.6996,0.004269
1017.5632,0.004315
1019.4269,0.004402
1021.2906,0.004558
1023.1542,0.004667
1025.0179,0.004737
1026.8816,0.004824
1028.7452,0.004947
1030.6089,0.005038
1032.4726,0.005079
1034.3362,0.005137
1036.1999,0.005215
1038.0636,0.005296
1039.9273,0.005369
1041.7909,0.005359
1043.6546,0.005299
1045.5183,0.005328
1047.3819,0.005350
1049.2456,0.005273
1051.1093,0.005214
1052.9729,0.005179
1054.8366,0.005171
1056.7003,0.005205
1058.5639,0.005230
1060.4276,0.005270
1062.2913,0.005336
1064.1550,0.005404
1066.0186,0.005457
1067.8823,0.005492
1069.7460,0.005542
1071.6096,0.005621
1073.4733,0.005720
1075.3370,0.005815
1077.2006,0.005896
1079.0643,0.005952
1080.9280,0.005974
1082.7916,0.005971
1084.6553,0.005941
1086.5190,0.005875
1088.3826,0.005794
1090.2463,0.005682
1092.1100,0.005580
1093.9737,0.005507
1095.8373,0.005440
1097.7010,0.005350
1099.5647,0.005299
1101.4283,0.005235
1103.2920,0.005159
1105.1557,0.005067
1107.0193,0.004980
1108.8830,0.004977
1110.7467,0.004961
1112.6103,0.004851
1114.4740,0.004760
1116.3377,0.004682
1118.2014,0.004583
1120.0650,0.004498
1121.9287,0.004446
1123.7924,0.004328
1125.6560,0.004210
1127.5197,0.004125
1129.3834,0.004022
1131.2470,0.003967
1133.1107,0.003924
1134.9744,0.003836
1136.8380,0.003733
1138.7017,0.003650
1140.5654,0.003613
1142.4290,0.003591
1144.2927,0.003532
1146.1564,0.003486
1148.0201,0.003444
1149.8837,0.003373
1151.7474,0.003361
1153.6111,0.003350
1155.4747,0.003299
1157.3384,0.003240
1159.2021,0.003205
1161.0657,0.003175
1162.9294,0.003135
1164.7931,0.003125
1166.6567,0.003128
1168.5204,0.003105
1170.3841,0.003089
1172.2477,0.003058
1174.1114,0.003029
1175.9751,0.003040
1177.8388,0.003053
1179.7024,0.003037
1181.5661,0.003066
1183.4298,0.003098
1185.2934,0.003078
1187.1571,0.003069
1189.0208,0.003115
1190.8844,0.003171
1192.7481,0.003232
1194.6118,0.003257
1196.4754,0.003270
1198.3391,0.003252
1200.2028,0.003234
1202.0665,0.003263
1203.9301,0.003280
1205.7938,0.003311
1207.6575,0.003320
1209.5211,0.003282
1211.3848,0.003303
1213.2485,0.003349
1215.1121,0.003334
1216.9758,0.003299
1218.8395,0.003292
1220.7031,0.003291
1222.5668,0.003274
1224.4305,0.003262
1226.2941,0.003279
1228.1578,0.003285
1230.0215,0.003304
1231.8852,0.003333
1233.7488,0.003329
1235.6125,0.003303
1237.4762,0.003296
1239.3398,0.003328
1241.2035,0.003370
1243.0672,0.003365
1244.9308,0.003362
1246.7945,0.003352
1248.6582,0.003353
1250.5218,0.003346
1252.3855,0.003316
1254.2492,0.003295
1256.1129,0.003260
1257.9765,0.003262
1259.8402,0.003287
1261.7039,0.003309
1263.5675,0.003281
1265.4312,0.003224
1267.2949,0.003178
1269.1585,0.003153
1271.0222,0.003175
1272.8859,0.003201
1274.7495,0.003187
1276.6132,0.003130
1278.4769,0.003150
1280.3405,0.003154
1282.2042,0.003154
1284.0679,0.003165
1285.9316,0.003155
1287.7952,0.003156
1289.6589,0.003163
1291.5226,0.003183
1293.3862,0.003220
1295.2499,0.003215
1297.1136,0.003216
1298.9772,0.003231
1300.8409,0.003239
1302.7046,0.003264
1304.5682,0.003273
1306.4319,0.003316
1308.2956,0.003363
1310.1592,0.003338
1312.0229,0.003381
1313.8866,0.003459
1315.7503,0.003477
1317.6139,0.003498
1319.4776,0.003569
1321.3413,0.003584
1323.2049,0.003537
1325.0686,0.003542
1326.9323,0.003524
1328.7959,0.003494
1330.6596,0.003532
1332.5233,0.003558
1334.3869,0.003517
1336.2506,0.003528
1338.1143,0.003702
1339.9780,0.003971
1341.8416,0.003988
1343.7053,0.003888
1345.5690,0.003939
1347.4326,0.003966
1349.2963,0.004018
1351.1600,0.004044
1353.0236,0.004005
1354.8873,0.003978
1356.7510,0.003883
1358.6146,0.003714
1360.4783,0.003706
1362.3420,0.003992
1364.2056,0.004187
1366.0693,0.003914
1367.9330,0.003750
1369.7967,0.003712
1371.6603,0.003633
1373.5240,0.003857
1375.3877,0.004165
1377.2513,0.004070
1379.1150,0.004035
1380.9787,0.003987
1382.8423,0.003902
1384.7060,0.003880
1386.5697,0.004109
1388.4333,0.004432
1390.2970,0.004177
1392.1607,0.003938
1394.0244,0.004197
1395.8880,0.004623
1397.7517,0.004627
1399.6154,0.004749
1401.4790,0.004630
1403.3427,0.004548
1405.2064,0.004846
1407.0700,0.004876
1408.9337,0.004741
1410.7974,0.004726
1412.6610,0.004682
1414.5247,0.004472
1416.3884,0.004356
1418.2520,0.004799
1420.1157,0.005415
1421.9794,0.004917
1423.8431,0.004576
1425.7067,0.004459
1427.5704,0.004160
1429.4341,0.004219
1431.2977,0.004189
1433.1614,0.003851
1435.0251,0.003892
1436.8887,0.004830
1438.7524,0.004813
1440.6161,0.004150
1442.4797,0.004020
1444.3434,0.003968
1446.2071,0.004036
1448.0707,0.004342
1449.9344,0.004262
1451.7981,0.003749
1453.6618,0.003467
1455.5254,0.003865
1457.3891,0.005713
1459.2528,0.005547
1461.1164,0.004493
1462.9801,0.003993
1464.8438,0.004276
1466.7074,0.004165
1468.5711,0.003538
1470.4348,0.003264
1472.2984,0.003982
1474.1621,0.004548
1476.0258,0.004243
1477.8895,0.003939
1479.7531,0.003551
1481.6168,0.003390
1483.4805,0.003187
1485.3441,0.002859
1487.2078,0.003004
1489.0715,0.003583
1490.9351,0.003952
1492.7988,0.003440
1494.6625,0.002978
1496.5261,0.003484
1498.3898,0.003905
1500.2535,0.003540
1502.1171,0.002895
1503.9808,0.002314
1505.8445,0.003250
1507.7082,0.005527
1509.5718,0.004948
1511.4355,0.004111
1513.2992,0.003786
1515.1628,0.003611
1517.0265,0.004117
1518.8902,0.004405
1520.7538,0.004827
1522.6175,0.005663
1524.4812,0.005270
1526.3448,0.005238
1528.2085,0.005189
1530.0722,0.004884
1531.9359,0.004932
1533.7995,0.005512
1535.6632,0.005131
1537.5269,0.004440
1539.3905,0.005896
1541.2542,0.007876
1543.1179,0.007660
1544.9815,0.007280
1546.8452,0.006783
1548.7089,0.006416
1550.5725,0.006703
1552.4362,0.006337
1554.2999,0.006011
1556.1635,0.006170
1558.0272,0.007749
1559.8909,0.010329
1561.7546,0.008683
1563.6182,0.007456
1565.4819,0.007342
1567.3456,0.007247
1569.2092,0.007747
1571.0729,0.008087
1572.9366,0.007494
1574.8002,0.007760
1576.6639,0.009229
1578.5276,0.009157
1580.3912,0.008586
1582.2549,0.008753
1584.1186,0.008995
1585.9822,0.009264
1587.8459,0.009533
1589.7096,0.009824
1591.5733,0.010185
1593.4369,0.010600
1595.3006,0.011074
1597.1643,0.011413
1599.0279,0.011660
1600.8916,0.012083
1602.7553,0.012560
1604.6189,0.013080
1606.4826,0.013617
1608.3463,0.014288
1610.2099,0.014843
1612.0736,0.015099
1613.9373,0.015256
1615.8010,0.016768
1617.6646,0.018488
1619.5283,0.018028
1621.3920,0.017945
1623.2556,0.019187
1625.1193,0.019750
1626.9830,0.019803
1628.8466,0.020010
1630.7103,0.019518
1632.5740,0.019181
1634.4376,0.020569
1636.3013,0.022742
1638.1650,0.021735
1640.0286,0.020294
1641.8923,0.019389
1643.7560,0.018906
1645.6197,0.019537
1647.4833,0.019992
1649.3470,0.018423
1651.2107,0.017941
1653.0743,0.021188
1654.9380,0.020274
1656.8017,0.017537
1658.6653,0.016239
1660.5290,0.015702
1662.3927,0.015603
1664.2563,0.014913
1666.1200,0.013686
1667.9837,0.013374
1669.8474,0.013647
1671.7110,0.012882
1673.5747,0.011995
1675.4384,0.011798
1677.3020,0.010776
1679.1657,0.009393
1681.0294,0.008631
1682.8930,0.008658
1684.7567,0.009761
1686.6204,0.008613
1688.4840,0.007245
1690.3477,0.006400
1692.2114,0.005437
1694.0750,0.004497
1695.9387,0.004617
1697.8024,0.004404
1699.6661,0.004217
1701.5297,0.004802
1703.3934,0.003723
1705.2571,0.003234
1707.1207,0.003072
1708.9844,0.002299
1710.8481,0.001567
1712.7117,0.001062
1714.5754,0.001002
1716.4391,0.001510
1718.3027,0.002132
1720.1664,0.001698
1722.0301,0.000896
1723.8937,0.000496
1725.7574,0.000060
1727.6211,-0.000277
1729.4848,-0.000414
1731.3484,-0.000448
1733.2121,-0.000312
1735.0758,0.000579
1736.9394,0.000066
1738.8031,-0.000473
1740.6668,-0.000416
1742.5304,-0.000569
1744.3941,-0.000770
1746.2578,-0.000875
1748.1214,-0.000806
1749.9851,-0.000665
1751.8488,-0.000619
1753.7125,-0.000878
1755.5761,-0.001316
1757.4398,-0.001254
1759.3035,-0.001375
1761.1671,-0.001374
1763.0308,-0.001153
1764.8945,-0.001495
1766.7581,-0.001841
1768.6218,-0.001656
1770.4855,-0.001759
1772.3491,-0.001284
1774.2128,-0.000913
1776.0765,-0.001321
1777.9401,-0.001691
1779.8038,-0.001704
1781.6675,-0.001469
1783.5312,-0.001568
1785.3948,-0.001613
1787.2585,-0.001783
1789.1222,-0.002096
1790.9858,-0.001935
1792.8495,-0.001326
1794.7132,-0.001427
1796.5768,-0.001791
1798.4405,-0.001967
1800.3042,-0.001975
1802.1678,-0.001817
1804.0315,-0.001901
1805.8952,-0.002111
1807.7589,-0.002147
1809.6225,-0.002138
1811.4862,-0.002133
1813.3499,-0.002228
1815.2135,-0.002568
1817.0772,-0.002574
1818.9409,-0.002332
1820.8045,-0.002281
1822.6682,-0.002375
1824.5319,-0.002219
1826.3955,-0.001929
1828.2592,-0.002227
1830.1229,-0.002096
1831.9865,-0.001796
1833.8502,-0.001978
1835.7139,-0.002171
1837.5776,-0.002254
1839.4412,-0.002196
1841.3049,-0.002275
1843.1686,-0.002379
1845.0322,-0.001879
1846.8959,-0.001882
1848.7596,-0.002152
1850.6232,-0.002185
1852.4869,-0.002277
1854.3506,-0.002310
1856.2142,-0.002223
1858.0779,-0.002115
1859.9416,-0.002161
1861.8052,-0.002222
1863.6689,-0.002271
1865.5326,-0.002182
1867.3963,-0.002092
1869.2599,-0.001599
1871.1236,-0.001595
1872.9873,-0.001992
1874.8509,-0.002163
1876.7146,-0.002218
1878.5783,-0.002241
1880.4419,-0.002169
1882.3056,-0.002393
1884.1693,-0.002426
1886.0329,-0.002256
1887.8966,-0.002235
1889.7603,-0.002022
1891.6240,-0.001821
1893.4876,-0.002011
1895.3513,-0.001937
1897.2150,-0.001892
1899.0786,-0.001971
1900.9423,-0.002055
1902.8060,-0.001972
1904.6696,-0.001941
1906.5333,-0.001946
1908.3970,-0.001971
1910.2606,-0.001947
1912.1243,-0.001991
1913.9880,-0.002060
1915.8516,-0.002212
1917.7153,-0.002086
1919.5790,-0.001680
1921.4427,-0.001785
1923.3063,-0.002060
1925.1700,-0.002061
1927.0337,-0.001903
1928.8973,-0.001696
1930.7610,-0.001790
1932.6247,-0.001868
1934.4883,-0.001818
1936.3520,-0.001697
1938.2157,-0.001670
1940.0793,-0.001918
1941.9430,-0.001780
1943.8067,-0.001275
1945.6704,-0.001238
1947.5340,-0.001543
1949.3977,-0.001714
1951.2614,-0.001430
1953.1250,-0.001300
1954.9887,-0.001495
1956.8524,-0.001562
1958.7160,-0.001180
1960.5797,-0.001107
1962.4434,-0.000834
1964.3070,-0.000934
1966.1707,-0.001432
1968.0344,-0.000903
1969.8980,-0.000636
1971.7617,-0.000860
1973.6254,-0.000943
1975.4891,-0.000622
1977.3527,0.000710
1979.2164,0.001964
1981.0801,0.001893
1982.9437,0.001268
1984.8074,0.001135
1986.6711,0.001087
1988.5347,0.001009
1990.3984,0.000478
1992.2621,-0.000316
1994.1257,-0.000406
1995.9894,-0.000357
1997.8531,-0.000354
1999.7167,-0.000295
2001.5804,-0.000701
2003.4441,-0.001213
2005.3078,-0.000878
2007.1714,0.000121
2009.0351,0.000655
2010.8988,0.000311
2012.7624,-0.000242
2014.6261,-0.000425
2016.4898,-0.000404
2018.3534,0.000010
2020.2171,0.000736
2022.0808,0.000925
2023.9444,0.000471
2025.8081,0.000018
2027.6718,0.000389
2029.5355,0.000663
2031.3991,0.000293
2033.2628,0.000557
2035.1265,0.001482
2036.9901,0.001683
2038.8538,0.001578
2040.7175,0.001483
2042.5811,0.001214
2044.4448,0.001401
2046.3085,0.001204
2048.1721,0.001057
2050.0358,0.001710
2051.8995,0.001626
2053.7631,0.001076
2055.6268,0.001119
2057.4905,0.000927
2059.3542,0.000475
2061.2178,0.000125
2063.0815,0.000335
2064.9452,0.000629
2066.8088,0.000427
2068.6725,0.000231
2070.5362,0.000332
2072.3998,0.000563
2074.2635,0.000869
2076.1272,0.000790
2077.9908,0.000431
2079.8545,0.000456
2081.7182,0.000660
2083.5819,0.000538
2085.4455,0.000362
2087.3092,-0.000062
2089.1729,-0.000409
2091.0365,-0.000141
2092.9002,-0.000252
2094.7639,-0.000553
2096.6275,-0.000195
2098.4912,-0.000024
2100.3549,-0.000107
2102.2185,0.000042
2104.0822,0.000124
2105.9459,0.000184
2107.8095,0.000131
2109.6732,0.000254
2111.5369,0.000474
2113.4006,0.000392
2115.2642,0.000093
2117.1279,-0.000308
2118.9916,-0.000675
2120.8552,-0.000892
2122.7189,-0.000977
2124.5826,-0.001277
2126.4462,-0.001856
2128.3099,-0.002241
2130.1736,-0.002252
2132.0372,-0.002098
2133.9009,-0.002128
2135.7646,-0.001683
2137.6282,-0.001002
2139.4919,-0.001230
2141.3556,-0.001716
2143.2193,-0.001335
2145.0829,-0.000753
2146.9466,-0.000670
2148.8103,-0.000857
2150.6739,-0.001410
2152.5376,-0.001804
2154.4013,-0.001829
2156.2649,-0.001872
2158.1286,-0.000787
2159.9923,0.002243
2161.8559,0.003891
2163.7196,0.003227
2165.5833,0.002217
2167.4470,0.001627
2169.3106,0.001370
2171.1743,0.001123
2173.0380,0.000855
2174.9016,0.000357
2176.7653,-0.000198
2178.6290,-0.000027
2180.4926,0.000602
2182.3563,0.001095
2184.2200,0.001333
2186.0836,0.001386
2187.9473,0.001461
2189.8110,0.001343
2191.6746,0.000863
2193.5383,0.000413
2195.4020,0.000267
2197.2657,0.000107
2199.1293,0.000403
2200.9930,0.000773
2202.8567,0.000251
2204.7203,-0.000067
2206.5840,0.000040
2208.4477,0.000069
2210.3113,0.000036
2212.1750,0.000032
2214.0387,-0.000032
2215.9023,-0.000021
2217.7660,0.000166
2219.6297,0.000373
2221.4934,0.000303
2223.3570,-0.000041
2225.2207,-0.000085
2227.0844,0.000165
2228.9480,0.000082
2230.8117,-0.000308
2232.6754,-0.000429
2234.5390,-0.000258
2236.4027,-0.000045
2238.2664,-0.000039
2240.1300,-0.000211
2241.9937,-0.000347
2243.8574,-0.000629
2245.7210,-0.000628
2247.5847,-0.000524
2249.4484,-0.000740
2251.3121,-0.000762
2253.1757,-0.000562
2255.0394,-0.000373
2256.9031,-0.000155
2258.7667,-0.000289
2260.6304,-0.000572
2262.4941,-0.000500
2264.3577,-0.000490
2266.2214,-0.000419
2268.0851,-0.000269
2269.9487,-0.000361
2271.8124,-0.000307
2273.6761,-0.000204
2275.5397,-0.000239
2277.4034,-0.000311
2279.2671,-0.000365
2281.1308,-0.000288
2282.9944,-0.000091
2284.8581,0.000043
2286.7218,0.000079
2288.5854,-0.000007
2290.4491,-0.000289
2292.3128,-0.000533
2294.1764,-0.000601
2296.0401,-0.000616
2297.9038,-0.000671
2299.7674,-0.000781
2301.6311,-0.000862
2303.4948,-0.000869
2305.3585,-0.000826
2307.2221,-0.000774
2309.0858,-0.000722
2310.9495,-0.000750
2312.8131,-0.000876
2314.6768,-0.000874
2316.5405,-0.000611
2318.4041,-0.000289
2320.2678,-0.000099
2322.1315,0.000260
2323.9951,0.000413
2325.8588,-0.000313
2327.7225,-0.001112
2329.5861,-0.001357
2331.4498,-0.001306
2333.3135,-0.001107
2335.1772,-0.001200
2337.0408,-0.001396
2338.9045,-0.001140
2340.7682,-0.000902
2342.6318,-0.000902
2344.4955,-0.000908
2346.3592,-0.000981
2348.2228,-0.001548
2350.0865,-0.002407
2351.9502,-0.002635
2353.8138,-0.002053
2355.6775,-0.001652
2357.5412,-0.001623
2359.4049,-0.001348
2361.2685,-0.000904
2363.1322,-0.000686
2364.9959,-0.000809
2366.8595,-0.001146
2368.7232,-0.001222
2370.5869,-0.001164
2372.4505,-0.001329
2374.3142,-0.001507
2376.1779,-0.001866
2378.0415,-0.002332
2379.9052,-0.002503
2381.7689,-0.002565
2383.6325,-0.002769
2385.4962,-0.002945
2387.3599,-0.003020
2389.2236,-0.003064
2391.0872,-0.003122
2392.9509,-0.003205
2394.8146,-0.003119
2396.6782,-0.002990
2398.5419,-0.003030
2400.4056,-0.003108
2402.2692,-0.003215
2404.1329,-0.003219
2405.9966,-0.003108
2407.8602,-0.003020
2409.7239,-0.002968
2411.5876,-0.002981
2413.4512,-0.003037
2415.3149,-0.003010
2417.1786,-0.002939
2419.0423,-0.002899
2420.9059,-0.002908
2422.7696,-0.003045
2424.6333,-0.003055
2426.4969,-0.002870
2428.3606,-0.002800
2430.2243,-0.002790
2432.0879,-0.002868
2433.9516,-0.003008
2435.8153,-0.002872
2437.6789,-0.002553
2439.5426,-0.002475
2441.4063,-0.002647
2443.2700,-0.002669
2445.1336,-0.002471
2446.9973,-0.002507
2448.8610,-0.002553
2450.7246,-0.002390
2452.5883,-0.002373
2454.4520,-0.002429
2456.3156,-0.002467
2458.1793,-0.002640
2460.0430,-0.002758
2461.9066,-0.002735
2463.7703,-0.002681
2465.6340,-0.002600
2467.4976,-0.002651
2469.3613,-0.002993
2471.2250,-0.003187
2473.0887,-0.003015
2474.9523,-0.002903
2476.8160,-0.002918
2478.6797,-0.002859
2480.5433,-0.002834
2482.4070,-0.002779
2484.2707,-0.002689
2486.1343,-0.002749
2487.9980,-0.002790
2489.8617,-0.002718
2491.7253,-0.002755
2493.5890,-0.002856
2495.4527,-0.002873
2497.3164,-0.002953
2499.1800,-0.003012
2501.0437,-0.002992
2502.9074,-0.002989
2504.7710,-0.002974
2506.6347,-0.003053
2508.4984,-0.003156
2510.3620,-0.003035
2512.2257,-0.002911
2514.0894,-0.002911
2515.9530,-0.002942
2517.8167,-0.002982
2519.6804,-0.002920
2521.5440,-0.002972
2523.4077,-0.003058
2525.2714,-0.002919
2527.1351,-0.002810
2528.9987,-0.002833
2530.8624,-0.002935
2532.7261,-0.003081
2534.5897,-0.003098
2536.4534,-0.002941
2538.3171,-0.002743
2540.1807,-0.002751
2542.0444,-0.002852
2543.9081,-0.002891
2545.7717,-0.003018
2547.6354,-0.003027
2549.4991,-0.002789
2551.3627,-0.002711
2553.2264,-0.002765
2555.0901,-0.002707
2556.9538,-0.002716
2558.8174,-0.002780
2560.6811,-0.002864
2562.5448,-0.002894
2564.4084,-0.002842
2566.2721,-0.002805
2568.1358,-0.002855
2569.9994,-0.002857
2571.8631,-0.002728
2573.7268,-0.002673
2575.5904,-0.002681
2577.4541,-0.002664
2579.3178,-0.002714
2581.1815,-0.002711
2583.0451,-0.002633
2584.9088,-0.002754
2586.7725,-0.002834
2588.6361,-0.002758
2590.4998,-0.002699
2592.3635,-0.002721
2594.2271,-0.002739
2596.0908,-0.002775
2597.9545,-0.002764
2599.8181,-0.002608
2601.6818,-0.002487
2603.5455,-0.002450
2605.4091,-0.002561
2607.2728,-0.002630
2609.1365,-0.002548
2611.0002,-0.002599
2612.8638,-0.002714
2614.7275,-0.002675
2616.5912,-0.002580
2618.4548,-0.002501
2620.3185,-0.002460
2622.1822,-0.002437
2624.0458,-0.002505
2625.9095,-0.002535
2627.7732,-0.002453
2629.6368,-0.002493
2631.5005,-0.002564
2633.3642,-0.002512
2635.2279,-0.002464
2637.0915,-0.002491
2638.9552,-0.002530
2640.8189,-0.002578
2642.6825,-0.002586
2644.5462,-0.002554
2646.4099,-0.002503
2648.2735,-0.002574
2650.1372,-0.002637
2652.0009,-0.002645
2653.8645,-0.002668
2655.7282,-0.002724
2657.5919,-0.002828
2659.4555,-0.002923
2661.3192,-0.003004
2663.1829,-0.003110
2665.0466,-0.003283
2666.9102,-0.003419
2668.7739,-0.003360
2670.6376,-0.003355
2672.5012,-0.003434
2674.3649,-0.003445
2676.2286,-0.003404
2678.0922,-0.003440
2679.9559,-0.003452
2681.8196,-0.003375
2683.6832,-0.003343
2685.5469,-0.003419
2687.4106,-0.003488
2689.2742,-0.003411
2691.1379,-0.003345
2693.0016,-0.003362
2694.8653,-0.003378
2696.7289,-0.003478
2698.5926,-0.003440
2700.4563,-0.003257
2702.3199,-0.003309
2704.1836,-0.003370
2706.0473,-0.003280
2707.9109,-0.003219
2709.7746,-0.003294
2711.6383,-0.003382
2713.5019,-0.003357
2715.3656,-0.003230
2717.2293,-0.003188
2719.0930,-0.003228
2720.9566,-0.003260
2722.8203,-0.003204
2724.6840,-0.003184
2726.5476,-0.003254
2728.4113,-0.003247
2730.2750,-0.003191
2732.1386,-0.003141
2734.0023,-0.003102
2735.8660,-0.003111
2737.7296,-0.003124
2739.5933,-0.003074
2741.4570,-0.003021
2743.3206,-0.003002
2745.1843,-0.002990
2747.0480,-0.002960
2748.9117,-0.002966
2750.7753,-0.003012
2752.6390,-0.003058
2754.5027,-0.003091
2756.3663,-0.003024
2758.2300,-0.003020
2760.0937,-0.003062
2761.9573,-0.002984
2763.8210,-0.002910
2765.6847,-0.002969
2767.5483,-0.003058
2769.4120,-0.003011
2771.2757,-0.002873
2773.1394,-0.002855
2775.0030,-0.002909
2776.8667,-0.002928
2778.7304,-0.002849
2780.5940,-0.002804
2782.4577,-0.002778
2784.3214,-0.002771
2786.1850,-0.002810
2788.0487,-0.002823
2789.9124,-0.002807
2791.7760,-0.002781
2793.6397,-0.002739
2795.5034,-0.002684
2797.3670,-0.002559
2799.2307,-0.002533
2801.0944,-0.002580
2802.9581,-0.002556
2804.8217,-0.002583
2806.6854,-0.002564
2808.5491,-0.002428
2810.4127,-0.002386
2812.2764,-0.002398
2814.1401,-0.002442
2816.0037,-0.002426
2817.8674,-0.002348
2819.7311,-0.002334
2821.5947,-0.002273
2823.4584,-0.002301
2825.3221,-0.002325
2827.1857,-0.002336
2829.0494,-0.002317
2830.9131,-0.002275
2832.7768,-0.002198
2834.6404,-0.002114
2836.5041,-0.002129
2838.3678,-0.002152
2840.2314,-0.002040
2842.0951,-0.001971
2843.9588,-0.002027
2845.8224,-0.002060
2847.6861,-0.001933
2849.5498,-0.001809
2851.4134,-0.001685
2853.2771,-0.001668
2855.1408,-0.001725
2857.0045,-0.001723
2858.8681,-0.001729
2860.7318,-0.001725
2862.5955,-0.001629
2864.4591,-0.001570
2866.3228,-0.001535
2868.1865,-0.001468
2870.0501,-0.001438
2871.9138,-0.001475
2873.7775,-0.001475
2875.6411,-0.001412
2877.5048,-0.001298
2879.3685,-0.001204
2881.2321,-0.001111
2883.0958,-0.001107
2884.9595,-0.001108
2886.8232,-0.001112
2888.6868,-0.001102
2890.5505,-0.001014
2892.4142,-0.000856
2894.2778,-0.000791
2896.1415,-0.000815
2898.0052,-0.000812
2899.8688,-0.000778
2901.7325,-0.000786
2903.5962,-0.000727
2905.4598,-0.000690
2907.3235,-0.000664
2909.1872,-0.000517
2911.0509,-0.000471
2912.9145,-0.000547
2914.7782,-0.000476
2916.6419,-0.000321
2918.5055,-0.000256
2920.3692,-0.000171
2922.2329,-0.000080
2924.0965,-0.000119
2925.9602,0.000017
2927.8239,0.000169
2929.6875,0.000209
2931.5512,0.000253
2933.4149,0.000299
2935.2785,0.000327
2937.1422,0.000402
2939.0059,0.000435
2940.8696,0.000490
2942.7332,0.000684
2944.5969,0.000754
2946.4606,0.000775
2948.3242,0.000698
2950.1879,0.000579
2952.0516,0.000688
2953.9152,0.000916
2955.7789,0.000880
2957.6426,0.000766
2959.5062,0.000811
2961.3699,0.000897
2963.2336,0.001011
2965.0972,0.000954
2966.9609,0.000924
2968.8246,0.001073
2970.6883,0.001043
2972.5519,0.001003
2974.4156,0.001093
2976.2793,0.001197
2978.1429,0.001211
2980.0066,0.001118
2981.8703,0.001160
2983.7339,0.001265
2985.5976,0.001311
2987.4613,0.001399
2989.3249,0.001513
2991.1886,0.001634
2993.0523,0.001748
2994.9160,0.001754
2996.7796,0.001747
2998.6433,0.001786
3000.5070,0.001852
3002.3706,0.001919
3004.2343,0.002004
3006.0980,0.002143
3007.9616,0.002254
3009.8253,0.002400
3011.6890,0.002474
3013.5526,0.002561
3015.4163,0.002663
3017.2800,0.002735
3019.1436,0.002852
3021.0073,0.002830
3022.8710,0.002927
3024.7347,0.003249
3026.5983,0.003336
3028.4620,0.003279
3030.3257,0.003381
3032.1893,0.003586
3034.0530,0.003681
3035.9167,0.003798
3037.7803,0.003985
3039.6440,0.004066
3041.5077,0.004206
3043.3713,0.004317
3045.2350,0.004331
3047.0987,0.004456
3048.9624,0.004590
3050.8260,0.004748
3052.6897,0.004971
3054.5534,0.005158
3056.4170,0.005199
3058.2807,0.005327
3060.1444,0.005521
3062.0080,0.005603
3063.8717,0.005755
3065.7354,0.005974
3067.5990,0.006182
3069.4627,0.006292
3071.3264,0.006361
3073.1900,0.006535
3075.0537,0.006790
3076.9174,0.006807
3078.7811,0.007005
3080.6447,0.007219
3082.5084,0.007329
3084.3721,0.007436
3086.2357,0.007430
3088.0994,0.007653
3089.9631,0.007997
3091.8267,0.008220
3093.6904,0.008432
3095.5541,0.008627
3097.4177,0.008682
3099.2814,0.008731
3101.1451,0.009011
3103.0087,0.009255
3104.8724,0.009422
3106.7361,0.009534
3108.5998,0.009706
3110.4634,0.009897
3112.3271,0.010119
3114.1908,0.010404
3116.0544,0.010653
3117.9181,0.010728
3119.7818,0.010885
3121.6454,0.011155
3123.5091,0.011386
3125.3728,0.011477
3127.2364,0.011836
3129.1001,0.012152
3130.9638,0.012357
3132.8275,0.012483
3134.6911,0.012528
3136.5548,0.012673
3138.4185,0.013000
3140.2821,0.013312
3142.1458,0.013692
3144.0095,0.013972
3145.8731,0.014195
3147.7368,0.014465
3149.6005,0.014715
3151.4641,0.015042
3153.3278,0.015338
3155.1915,0.015510
3157.0551,0.015687
3158.9188,0.015812
3160.7825,0.016260
3162.6462,0.016554
3164.5098,0.016786
3166.3735,0.017039
3168.2372,0.017316
3170.1008,0.017583
3171.9645,0.017924
3173.8282,0.018164
3175.6918,0.018516
3177.5555,0.018748
3179.4192,0.019082
3181.2828,0.019325
3183.1465,0.019526
3185.0102,0.019822
3186.8739,0.020156
3188.7375,0.020103
3190.6012,0.020394
3192.4649,0.020785
3194.3285,0.021005
3196.1922,0.021354
3198.0559,0.021888
3199.9195,0.021955
3201.7832,0.021984
3203.6469,0.022146
3205.5105,0.022381
3207.3742,0.022667
3209.2379,0.023001
3211.1015,0.023174
3212.9652,0.023540
3214.8289,0.023885
3216.6926,0.024119
3218.5562,0.024165
3220.4199,0.024260
3222.2836,0.024538
3224.1472,0.024784
3226.0109,0.024838
3227.8746,0.025050
3229.7382,0.025359
3231.6019,0.025741
3233.4656,0.025942
3235.3292,0.026130
3237.1929,0.026286
3239.0566,0.026469
3240.9202,0.026479
3242.7839,0.026637
3244.6476,0.026847
3246.5113,0.027021
3248.3749,0.027061
3250.2386,0.027495
3252.1023,0.027660
3253.9659,0.027681
3255.8296,0.027674
3257.6933,0.027917
3259.5569,0.028214
3261.4206,0.028330
3263.2843,0.028154
3265.1479,0.028287
3267.0116,0.028541
3268.8753,0.028761
3270.7390,0.028694
3272.6026,0.028882
3274.4663,0.029107
3276.3300,0.029411
3278.1936,0.029519
3280.0573,0.029707
3281.9210,0.029535
3283.7846,0.029471
3285.6483,0.029816
3287.5120,0.029870
3289.3756,0.029647
3291.2393,0.030015
3293.1030,0.030384
3294.9666,0.030411
3296.8303,0.030475
3298.6940,0.030778
3300.5577,0.030752
3302.4213,0.030681
3304.2850,0.031005
3306.1487,0.031387
3308.0123,0.031423
3309.8760,0.031576
3311.7397,0.031623
3313.6033,0.031825
3315.4670,0.032021
3317.3307,0.032014
3319.1943,0.031907
3321.0580,0.032136
3322.9217,0.032348
3324.7854,0.032562
3326.6490,0.032706
3328.5127,0.032868
3330.3764,0.033052
3332.2400,0.033220
3334.1037,0.033131
3335.9674,0.033317
3337.8310,0.033583
3339.6947,0.034016
3341.5584,0.034122
3343.4220,0.034111
3345.2857,0.034160
3347.1494,0.034294
3349.0130,0.034364
3350.8767,0.034472
3352.7404,0.034629
3354.6041,0.034980
3356.4677,0.035009
3358.3314,0.034835
3360.1951,0.034940
3362.0587,0.035205
3363.9224,0.035116
3365.7861,0.035122
3367.6497,0.035326
3369.5134,0.035631
3371.3771,0.035496
3373.2407,0.035370
3375.1044,0.035425
3376.9681,0.035695
3378.8317,0.035772
3380.6954,0.035748
3382.5591,0.035694
3384.4228,0.035535
3386.2864,0.035283
3388.1501,0.035387
3390.0138,0.035250
3391.8774,0.035194
3393.7411,0.035256
3395.6048,0.035368
3397.4684,0.035499
3399.3321,0.035617
3401.1958,0.035222
3403.0594,0.035203
3404.9231,0.035435
3406.7868,0.035448
3408.6505,0.035001
3410.5141,0.034842
3412.3778,0.034858
3414.2415,0.034849
3416.1051,0.034689
3417.9688,0.034725
3419.8325,0.034619
3421.6961,0.034627
3423.5598,0.034361
3425.4235,0.034006
3427.2871,0.033866
3429.1508,0.033932
3431.0145,0.033717
3432.8781,0.033681
3434.7418,0.033421
3436.6055,0.033208
3438.4692,0.033119
3440.3328,0.032987
3442.1965,0.032629
3444.0602,0.032520
3445.9238,0.032493
3447.7875,0.032525
3449.6512,0.032189
3451.5148,0.031978
3453.3785,0.031651
3455.2422,0.031357
3457.1058,0.031227
3458.9695,0.031093
3460.8332,0.030480
3462.6969,0.030307
3464.5605,0.030142
3466.4242,0.029732
3468.2879,0.029272
3470.1515,0.029340
3472.0152,0.029332
3473.8789,0.029117
3475.7425,0.028759
3477.6062,0.028354
3479.4699,0.027884
3481.3335,0.027801
3483.1972,0.027758
3485.0609,0.027537
3486.9245,0.026917
3488.7882,0.026787
3490.6519,0.026475
3492.5156,0.026105
3494.3792,0.025982
3496.2429,0.025841
3498.1066,0.025322
3499.9702,0.024868
3501.8339,0.024665
3503.6976,0.024719
3505.5612,0.024283
3507.4249,0.024052
3509.2886,0.023710
3511.1522,0.023404
3513.0159,0.022933
3514.8796,0.022543
3516.7432,0.022219
3518.6069,0.021833
3520.4706,0.021568
3522.3343,0.021675
3524.1979,0.021753
3526.0616,0.021525
3527.9253,0.021077
3529.7889,0.020865
3531.6526,0.020485
3533.5163,0.019739
3535.3799,0.019064
3537.2436,0.019004
3539.1073,0.018861
3540.9709,0.018524
3542.8346,0.018188
3544.6983,0.018051
3546.5620,0.018132
3548.4256,0.017892
3550.2893,0.017078
3552.1530,0.016798
3554.0166,0.016758
3555.8803,0.016297
3557.7440,0.015537
3559.6076,0.015231
3561.4713,0.015186
3563.3350,0.014945
3565.1986,0.014727
3567.0623,0.015095
3568.9260,0.015578
3570.7896,0.014910
3572.6533,0.013866
3574.5170,0.013337
3576.3807,0.012759
3578.2443,0.012504
3580.1080,0.012243
3581.9717,0.011751
3583.8353,0.011336
3585.6990,0.011202
3587.5627,0.011473
3589.4263,0.011876
3591.2900,0.011362
3593.1537,0.010775
3595.0173,0.010634
3596.8810,0.010390
3598.7447,0.009745
3600.6084,0.009604
3602.4720,0.009456
3604.3357,0.008555
3606.1994,0.007938
3608.0630,0.008097
3609.9267,0.008274
3611.7904,0.007952
3613.6540,0.007505
3615.5177,0.007251
3617.3814,0.006991
3619.2450,0.007096
3621.1087,0.007166
3622.9724,0.006304
3624.8360,0.005187
3626.6997,0.004659
3628.5634,0.005027
3630.4271,0.006219
3632.2907,0.006023
3634.1544,0.004950
3636.0181,0.004174
3637.8817,0.003685
3639.7454,0.003205
3641.6091,0.002671
3643.4727,0.002124
3645.3364,0.001396
3647.2001,0.001187
3649.0637,0.002094
3650.9274,0.002871
3652.7911,0.002569
3654.6547,0.001566
3656.5184,0.000863
3658.3821,0.000725
3660.2458,0.000455
3662.1094,-0.000016
3663.9731,-0.000571
3665.8368,-0.001083
3667.7004,-0.001563
3669.5641,-0.001711
3671.4278,-0.000980
3673.2914,-0.001092
3675.1551,-0.001663
3677.0188,-0.000700
3678.8824,-0.000577
3680.7461,-0.001407
3682.6098,-0.001859
3684.4735,-0.002298
3686.3371,-0.002883
3688.2008,-0.003072
3690.0645,-0.002310
3691.9281,-0.001666
3693.7918,-0.001956
3695.6555,-0.002653
3697.5191,-0.003052
3699.3828,-0.003282
3701.2465,-0.003391
3703.1101,-0.002964
3704.9738,-0.002914
3706.8375,-0.003461
3708.7011,-0.003850
3710.5648,-0.003633
3712.4285,-0.002884
3714.2922,-0.002366
3716.1558,-0.002696
3718.0195,-0.003421
3719.8832,-0.003821
3721.7468,-0.003756
3723.6105,-0.003505
3725.4742,-0.003474
3727.3378,-0.003451
3729.2015,-0.003602
3731.0652,-0.004195
3732.9288,-0.004330
3734.7925,-0.003972
3736.6562,-0.003420
3738.5199,-0.002873
3740.3835,-0.003389
3742.2472,-0.004407
3744.1109,-0.004879
3745.9745,-0.003718
3747.8382,-0.003389
3749.7019,-0.003877
3751.5655,-0.003209
3753.4292,-0.002496
3755.2929,-0.002748
3757.1565,-0.003526
3759.0202,-0.003924
3760.8839,-0.003591
3762.7475,-0.003358
3764.6112,-0.003727
3766.4749,-0.003982
3768.3386,-0.003989
3770.2022,-0.003870
3772.0659,-0.003425
3773.9296,-0.003585
3775.7932,-0.004172
3777.6569,-0.004385
3779.5206,-0.004209
3781.3842,-0.003854
3783.2479,-0.003749
3785.1116,-0.003818
3786.9752,-0.003854
3788.8389,-0.004107
3790.7026,-0.004351
3792.5662,-0.004373
3794.4299,-0.004542
3796.2936,-0.004762
3798.1573,-0.004576
3800.0209,-0.004589
3801.8846,-0.004310
3803.7483,-0.003342
3805.6119,-0.003625
3807.4756,-0.004027
3809.3393,-0.003697
3811.2029,-0.004063
3813.0666,-0.004794
3814.9303,-0.005254
3816.7939,-0.004802
3818.6576,-0.004066
3820.5213,-0.004257
3822.3850,-0.003851
3824.2486,-0.003525
3826.1123,-0.004165
3827.9760,-0.004446
3829.8396,-0.004586
3831.7033,-0.004823
3833.5670,-0.004649
3835.4306,-0.004536
3837.2943,-0.004537
3839.1580,-0.004168
3841.0216,-0.003741
3842.8853,-0.003906
3844.7490,-0.004105
3846.6126,-0.004292
3848.4763,-0.004852
3850.3400,-0.005362
3852.2037,-0.005726
3854.0673,-0.004788
3855.9310,-0.002956
3857.7947,-0.003252
3859.6583,-0.004247
3861.5220,-0.004694
3863.3857,-0.004798
3865.2493,-0.004582
3867.1130,-0.004416
3868.9767,-0.004706
3870.8403,-0.004523
3872.7040,-0.004153
3874.5677,-0.004348
3876.4314,-0.004281
3878.2950,-0.004523
3880.1587,-0.004862
3882.0224,-0.004417
3883.8860,-0.004264
3885.7497,-0.004488
3887.6134,-0.004078
3889.4770,-0.004157
3891.3407,-0.004638
3893.2044,-0.004371
3895.0680,-0.004277
3896.9317,-0.004801
3898.7954,-0.005136
3900.6590,-0.004873
3902.5227,-0.004369
3904.3864,-0.003933
3906.2501,-0.003695
3908.1137,-0.003920
3909.9774,-0.004294
3911.8411,-0.004588
3913.7047,-0.004756
3915.5684,-0.004843
3917.4321,-0.004728
3919.2957,-0.004336
3921.1594,-0.004267
3923.0231,-0.004497
3924.8867,-0.004508
3926.7504,-0.004246
3928.6141,-0.004311
3930.4777,-0.004642
3932.3414,-0.004600
3934.2051,-0.004255
3936.0688,-0.004193
3937.9324,-0.004504
3939.7961,-0.004657
3941.6598,-0.004583
3943.5234,-0.004530
3945.3871,-0.004509
3947.2508,-0.004538
3949.1144,-0.004459
3950.9781,-0.004311
3952.8418,-0.004313
3954.7054,-0.004460
3956.5691,-0.004634
3958.4328,-0.004558
3960.2965,-0.004558
3962.1601,-0.004662
3964.0238,-0.004532
3965.8875,-0.004414
3967.7511,-0.004474
3969.6148,-0.004507
3971.4785,-0.004496
3973.3421,-0.004430
3975.2058,-0.004380
3977.0695,-0.004364
3978.9331,-0.004479
3980.7968,-0.004730
3982.6605,-0.004848
3984.5241,-0.004744
3986.3878,-0.004593
3988.2515,-0.004490
3990.1152,-0.004524
3991.9788,-0.004617
3993.8425,-0.004609
3995.7062,-0.004507
3997.5698,-0.004528
3999.4335,-0.004637
