Wavenumber,Intensity
650.4205,0.034571
652.2841,0.035008
654.1478,0.034417
656.0115,0.033530
657.8751,0.032412
659.7388,0.031024
661.6025,0.030815
663.4661,0.031581
665.3298,0.031389
667.1935,0.031519
669.0571,0.032191
670.9208,0.031040
672.7845,0.030019
674.6481,0.030150
676.5118,0.030280
678.3755,0.029768
680.2392,0.029420
682.1028,0.028936
683.9665,0.028699
685.8302,0.028837
687.6938,0.028705
689.5575,0.028418
691.4212,0.028205
693.2848,0.027971
695.1485,0.027880
697.0122,0.027642
698.8758,0.027086
700.7395,0.026888
702.6032,0.026965
704.4669,0.026770
706.3305,0.026508
708.1942,0.026121
710.0579,0.025894
711.9215,0.026249
713.7852,0.026280
715.6489,0.025649
717.5125,0.025197
719.3762,0.025178
721.2399,0.025260
723.1035,0.025378
724.9672,0.025201
726.8309,0.024490
728.6945,0.023998
730.5582,0.024170
732.4219,0.024419
734.2856,0.024322
736.1492,0.024087
738.0129,0.023892
739.8766,0.023627
741.7402,0.023456
743.6039,0.023335
745.4676,0.023314
747.3312,0.023361
749.1949,0.022985
751.0586,0.022637
752.9222,0.022771
754.7859,0.022815
756.6496,0.022442
758.5132,0.022042
760.3769,0.021872
762.2406,0.021938
764.1043,0.021949
765.9679,0.021877
767.8316,0.021806
769.6953,0.021578
771.5589,0.021384
773.4226,0.021271
775.2863,0.021213
777.1499,0.021158
779.0136,0.021014
780.8773,0.020785
782.7409,0.020656
784.6046,0.020613
786.4683,0.020335
788.3320,0.020117
790.1956,0.020102
792.0593,0.020093
793.9230,0.019958
795.7866,0.019743
797.6503,0.019624
799.5140,0.019475
801.3776,0.019276
803.2413,0.019170
805.1050,0.019039
806.9686,0.018885
808.8323,0.018649
810.6960,0.018355
812.5596,0.018230
814.4233,0.018138
816.2870,0.017979
818.1507,0.017876
820.0143,0.017824
821.8780,0.017693
823.7417,0.017499
825.6053,0.017249
827.4690,0.016987
829.3327,0.016917
831.1963,0.016995
833.0600,0.016912
834.9237,0.016705
836.7873,0.016602
838.6510,0.016394
840.5147,0.016113
842.3784,0.016037
844.2420,0.015987
846.1057,0.015886
847.9694,0.015648
849.8330,0.015479
851.6967,0.015425
853.5604,0.015249
855.4240,0.015004
857.2877,0.014847
859.1514,0.014821
861.0150,0.014749
862.8787,0.014491
864.7424,0.014269
866.6060,0.014192
868.4697,0.014143
870.3334,0.014115
872.1971,0.014003
874.0607,0.013763
875.9244,0.013649
877.7881,0.013622
879.6517,0.013554
881.5154,0.013370
883.3791,0.013200
885.2427,0.013090
887.1064,0.012931
888.9701,0.012819
890.8337,0.012766
892.6974,0.012626
894.5611,0.012458
896.4247,0.012342
898.2884,0.012276
900.1521,0.012197
902.0158,0.012105
903.8794,0.011975
905.7431,0.011882
907.6068,0.011867
909.4704,0.011854
911.3341,0.011811
913.1978,0.011746
915.0614,0.011672
916.9251,0.011659
918.7888,0.011627
920.6524,0.011535
922.5161,0.011509
924.3798,0.011539
926.2435,0.011502
928.1071,0.011466
929.9708,0.011405
931.8345,0.011362
933.6981,0.011326
935.5618,0.011263
937.4255,0.011209
939.2891,0.011174
941.1528,0.011106
943.0165,0.011069
944.8801,0.011108
946.7438,0.011143
948.6075,0.011126
950.4711,0.011120
952.3348,0.011113
954.1985,0.011120
956.0622,0.011097
957.9258,0.010999
959.7895,0.010948
961.6532,0.010995
963.5168,0.011109
965.3805,0.011208
967.2442,0.011234
969.1078,0.011287
970.9715,0.011407
972.8352,0.011506
974.6988,0.011576
976.5625,0.011610
978.4262,0.011642
980.2899,0.011686
982.1535,0.011712
984.0172,0.011765
985.8809,0.011813
987.7445,0.011835
989.6082,0.011877
991.4719,0.011936
993.3355,0.011970
995.1992,0.012065
997.0629,0.012164
998.9265,0.012222
1000.7902,0.012336
1002.6539,0.012444
1004.5175,0.012515
1006.3812,0.012580
1008.2449,0.012645
1010.1086,0.012759
1011.9722,0.012851
1013.8359,0.012937
1015.6996,0.013051
1017.5632,0.013210
1019.4269,0.013366
1021.2906,0.013503
1023.1542,0.013607
1025.0179,0.013747
1026.8816,0.013891
1028.7452,0.014008
1030.6089,0.014136
1032.4726,0.014334
1034.3362,0.014547
1036.1999,0.014712
1038.0636,0.014876
1039.9273,0.015079
1041.7909,0.015253
1043.6546,0.015425
1045.5183,0.015528
1047.3819,0.015512
1049.2456,0.015403
1051.1093,0.015264
1052.9729,0.015101
1054.8366,0.015021
1056.7003,0.014991
1058.5639,0.014954
1060.4276,0.014914
1062.2913,0.014936
1064.1550,0.015011
1066.0186,0.015122
1067.8823,0.015218
1069.7460,0.015292
1071.6096,0.015397
1073.4733,0.015525
1075.3370,0.015683
1077.2006,0.015858
1079.0643,0.015961
1080.9280,0.015998
1082.7916,0.016002
1084.6553,0.015978
1086.5190,0.015907
1088.3826,0.015850
1090.2463,0.015791
1092.1100,0.015678
1093.9737,0.015533
1095.8373,0.015461
1097.7010,0.015399
1099.5647,0.015305
1101.4283,0.015219
1103.2920,0.015154
1105.1557,0.015083
1107.0193,0.014987
1108.8830,0.014873
1110.7467,0.014780
1112.6103,0.014686
1114.4740,0.014614
1116.3377,0.014520
1118.2014,0.014411
1120.0650,0.014310
1121.9287,0.014216
1123.7924,0.014049
1125.6560,0.013858
1127.5197,0.013699
1129.3834,0.013562
1131.2470,0.013415
1133.1107,0.013267
1134.9744,0.013119
1136.8380,0.013004
1138.7017,0.012943
1140.5654,0.012867
1142.4290,0.012769
1144.2927,0.012685
1146.1564,0.012569
1148.0201,0.012431
1149.8837,0.012309
1151.7474,0.012266
1153.6111,0.012219
1155.4747,0.012150
1157.3384,0.012088
1159.2021,0.012048
1161.0657,0.012008
1162.9294,0.011960
1164.7931,0.011906
1166.6567,0.011890
1168.5204,0.011868
1170.3841,0.011830
1172.2477,0.011819
1174.1114,0.011795
1175.9751,0.011791
1177.8388,0.011800
1179.7024,0.011810
1181.5661,0.011790
1183.4298,0.011778
1185.2934,0.011852
1187.1571,0.011893
1189.0208,0.011914
1190.8844,0.011961
1192.7481,0.011979
1194.6118,0.011985
1196.4754,0.012032
1198.3391,0.012057
1200.2028,0.012082
1202.0665,0.012114
1203.9301,0.012156
1205.7938,0.012162
1207.6575,0.012181
1209.5211,0.012243
1211.3848,0.012304
1213.2485,0.012337
1215.1121,0.012331
1216.9758,0.012282
1218.8395,0.012275
1220.7031,0.012262
1222.5668,0.012220
1224.4305,0.012172
1226.2941,0.012186
1228.1578,0.012173
1230.0215,0.012137
1231.8852,0.012113
1233.7488,0.012087
1235.6125,0.012032
1237.4762,0.012024
1239.3398,0.012041
1241.2035,0.012015
1243.0672,0.011997
1244.9308,0.011998
1246.7945,0.011974
1248.6582,0.011952
1250.5218,0.011925
1252.3855,0.011919
1254.2492,0.011904
1256.1129,0.011861
1257.9765,0.011765
1259.8402,0.011718
1261.7039,0.011698
1263.5675,0.011687
1265.4312,0.011661
1267.2949,0.011618
1269.1585,0.011597
1271.0222,0.011595
1272.8859,0.011621
1274.7495,0.011622
1276.6132,0.011620
1278.4769,0.011661
1280.3405,0.011681
1282.2042,0.011680
1284.0679,0.011670
1285.9316,0.011663
1287.7952,0.011754
1289.6589,0.011881
1291.5226,0.011871
1293.3862,0.011900
1295.2499,0.011961
1297.1136,0.012028
1298.9772,0.012070
1300.8409,0.012133
1302.7046,0.012194
1304.5682,0.012221
1306.4319,0.012254
1308.2956,0.012248
1310.1592,0.012242
1312.0229,0.012320
1313.8866,0.012380
1315.7503,0.012356
1317.6139,0.012420
1319.4776,0.012526
1321.3413,0.012515
1323.2049,0.012466
1325.0686,0.012509
1326.9323,0.012569
1328.7959,0.012595
1330.6596,0.012604
1332.5233,0.012630
1334.3869,0.012590
1336.2506,0.012583
1338.1143,0.012846
1339.9780,0.013168
1341.8416,0.013203
1343.7053,0.013101
1345.5690,0.013193
1347.4326,0.013322
1349.2963,0.013394
1351.1600,0.013340
1353.0236,0.013293
1354.8873,0.013241
1356.7510,0.013118
1358.6146,0.012921
1360.4783,0.012937
1362.3420,0.013209
1364.2056,0.013306
1366.0693,0.013046
1367.9330,0.013030
1369.7967,0.013093
1371.6603,0.013041
1373.5240,0.013286
1375.3877,0.013692
1377.2513,0.013674
1379.1150,0.013719
1380.9787,0.013704
1382.8423,0.013634
1384.7060,0.013670
1386.5697,0.014053
1388.4333,0.014367
1390.2970,0.013999
1392.1607,0.013788
1394.0244,0.014182
1395.8880,0.014714
1397.7517,0.014674
1399.6154,0.014910
1401.4790,0.014823
1403.3427,0.014685
1405.2064,0.015064
1407.0700,0.015144
1408.9337,0.015015
1410.7974,0.014989
1412.6610,0.014824
1414.5247,0.014443
1416.3884,0.014342
1418.2520,0.014733
1420.1157,0.015048
1421.9794,0.014294
1423.8431,0.013940
1425.7067,0.013875
1427.5704,0.013552
1429.4341,0.013535
1431.2977,0.013367
1433.1614,0.012988
1435.0251,0.013012
1436.8887,0.013917
1438.7524,0.013807
1440.6161,0.013231
1442.4797,0.013138
1444.3434,0.013012
1446.2071,0.013061
1448.0707,0.013334
1449.9344,0.013196
1451.7981,0.012638
1453.6618,0.012429
1455.5254,0.012830
1457.3891,0.014478
1459.2528,0.013993
1461.1164,0.013065
1462.9801,0.012723
1464.8438,0.013194
1466.7074,0.013005
1468.5711,0.012369
1470.4348,0.012059
1472.2984,0.012776
1474.1621,0.013214
1476.0258,0.012869
1477.8895,0.012639
1479.7531,0.012300
1481.6168,0.012216
1483.4805,0.011991
1485.3441,0.011745
1487.2078,0.012024
1489.0715,0.012584
1490.9351,0.012857
1492.7988,0.012287
1494.6625,0.012017
1496.5261,0.012702
1498.3898,0.013065
1500.2535,0.012661
1502.1171,0.012035
1503.9808,0.011671
1505.8445,0.012994
1507.7082,0.014882
1509.5718,0.014072
1511.4355,0.013493
1513.2992,0.013410
1515.1628,0.013296
1517.0265,0.013796
1518.8902,0.013945
1520.7538,0.014504
1522.6175,0.015345
1524.4812,0.014965
1526.3448,0.015264
1528.2085,0.015352
1530.0722,0.015146
1531.9359,0.015242
1533.7995,0.015908
1535.6632,0.015381
1537.5269,0.014817
1539.3905,0.016577
1541.2542,0.018376
1543.1179,0.018062
1544.9815,0.017830
1546.8452,0.017530
1548.7089,0.017294
1550.5725,0.017654
1552.4362,0.017229
1554.2999,0.017013
1556.1635,0.016988
1558.0272,0.018605
1559.8909,0.020907
1561.7546,0.019116
1563.6182,0.017925
1565.4819,0.017966
1567.3456,0.018037
1569.2092,0.018567
1571.0729,0.018694
1572.9366,0.018007
1574.8002,0.018329
1576.6639,0.019845
1578.5276,0.019721
1580.3912,0.019193
1582.2549,0.019325
1584.1186,0.019533
1585.9822,0.019794
1587.8459,0.019922
1589.7096,0.020103
1591.5733,0.020366
1593.4369,0.020720
1595.3006,0.020994
1597.1643,0.021200
1599.0279,0.021375
1600.8916,0.021738
1602.7553,0.022061
1604.6189,0.022408
1606.4826,0.022773
1608.3463,0.023245
1610.2099,0.023466
1612.0736,0.023716
1613.9373,0.024187
1615.8010,0.025431
1617.6646,0.026625
1619.5283,0.026393
1621.3920,0.026484
1623.2556,0.027585
1625.1193,0.028234
1626.9830,0.028341
1628.8466,0.028539
1630.7103,0.028364
1632.5740,0.028263
1634.4376,0.029054
1636.3013,0.030476
1638.1650,0.029806
1640.0286,0.028835
1641.8923,0.028300
1643.7560,0.028085
1645.6197,0.028304
1647.4833,0.028352
1649.3470,0.027358
1651.2107,0.027032
1653.0743,0.029064
1654.9380,0.028322
1656.8017,0.026358
1658.6653,0.025418
1660.5290,0.024912
1662.3927,0.024578
1664.2563,0.023800
1666.1200,0.022669
1667.9837,0.022066
1669.8474,0.021873
1671.7110,0.021101
1673.5747,0.020122
1675.4384,0.019704
1677.3020,0.018586
1679.1657,0.017323
1681.0294,0.016576
1682.8930,0.016245
1684.7567,0.016641
1686.6204,0.015349
1688.4840,0.014121
1690.3477,0.013226
1692.2114,0.012406
1694.0750,0.011407
1695.9387,0.011395
1697.8024,0.010907
1699.6661,0.010727
1701.5297,0.010797
1703.3934,0.009748
1705.2571,0.009370
1707.1207,0.009142
1708.9844,0.008580
1710.8481,0.007980
1712.7117,0.007505
1714.5754,0.007376
1716.4391,0.007649
1718.3027,0.008044
1720.1664,0.007582
1722.0301,0.007000
1723.8937,0.006831
1725.7574,0.006586
1727.6211,0.006161
1729.4848,0.006018
1731.3484,0.005920
1733.2121,0.005998
1735.0758,0.006686
1736.9394,0.005965
1738.8031,0.005694
1740.6668,0.005882
1742.5304,0.005790
1744.3941,0.005580
1746.2578,0.005366
1748.1214,0.005366
1749.9851,0.005553
1751.8488,0.005638
1753.7125,0.005307
1755.5761,0.005060
1757.4398,0.005211
1759.3035,0.005040
1761.1671,0.005017
1763.0308,0.005042
1764.8945,0.004757
1766.7581,0.004492
1768.6218,0.004680
1770.4855,0.004649
1772.3491,0.004957
1774.2128,0.004949
1776.0765,0.004739
1777.9401,0.004519
1779.8038,0.004647
1781.6675,0.004767
1783.5312,0.004629
1785.3948,0.004528
1787.2585,0.004476
1789.1222,0.004385
1790.9858,0.004453
1792.8495,0.004820
1794.7132,0.004710
1796.5768,0.004494
1798.4405,0.004449
1800.3042,0.004507
1802.1678,0.004581
1804.0315,0.004483
1805.8952,0.004341
1807.7589,0.004181
1809.6225,0.004185
1811.4862,0.004406
1813.3499,0.004217
1815.2135,0.003827
1817.0772,0.003810
1818.9409,0.004111
1820.8045,0.004277
1822.6682,0.004059
1824.5319,0.004130
1826.3955,0.004394
1828.2592,0.004340
1830.1229,0.004495
1831.9865,0.004408
1833.8502,0.004200
1835.7139,0.004158
1837.5776,0.004127
1839.4412,0.004028
1841.3049,0.003993
1843.1686,0.004265
1845.0322,0.004698
1846.8959,0.004492
1848.7596,0.004284
1850.6232,0.004216
1852.4869,0.004248
1854.3506,0.004315
1856.2142,0.004343
1858.0779,0.004266
1859.9416,0.004158
1861.8052,0.003989
1863.6689,0.003983
1865.5326,0.004045
1867.3963,0.004228
1869.2599,0.004524
1871.1236,0.004410
1872.9873,0.004238
1874.8509,0.004227
1876.7146,0.004190
1878.5783,0.004272
1880.4419,0.004410
1882.3056,0.004267
1884.1693,0.004014
1886.0329,0.003910
1887.8966,0.003995
1889.7603,0.004126
1891.6240,0.004231
1893.4876,0.004368
1895.3513,0.004261
1897.2150,0.004146
1899.0786,0.004200
1900.9423,0.004124
1902.8060,0.004075
1904.6696,0.004079
1906.5333,0.004221
1908.3970,0.004348
1910.2606,0.004330
1912.1243,0.004233
1913.9880,0.004159
1915.8516,0.004072
1917.7153,0.004160
1919.5790,0.004133
1921.4427,0.003823
1923.3063,0.003805
1925.1700,0.003838
1927.0337,0.003765
1928.8973,0.003760
1930.7610,0.003732
1932.6247,0.003765
1934.4883,0.003874
1936.3520,0.004099
1938.2157,0.004166
1940.0793,0.003974
1941.9430,0.004083
1943.8067,0.004110
1945.6704,0.004125
1947.5340,0.004277
1949.3977,0.004199
1951.2614,0.004133
1953.1250,0.003954
1954.9887,0.003805
1956.8524,0.003841
1958.7160,0.004244
1960.5797,0.004438
1962.4434,0.004085
1964.3070,0.003975
1966.1707,0.003916
1968.0344,0.003586
1969.8980,0.003770
1971.7617,0.004415
1973.6254,0.004721
1975.4891,0.004601
1977.3527,0.005430
1979.2164,0.006473
1981.0801,0.006039
1982.9437,0.005457
1984.8074,0.005747
1986.6711,0.005798
1988.5347,0.005282
1990.3984,0.005115
1992.2621,0.005089
1994.1257,0.005241
1995.9894,0.005382
1997.8531,0.004797
1999.7167,0.004277
2001.5804,0.004032
2003.4441,0.003806
2005.3078,0.003916
2007.1714,0.004417
2009.0351,0.005186
2010.8988,0.005584
2012.7624,0.005444
2014.6261,0.005133
2016.4898,0.004979
2018.3534,0.005202
2020.2171,0.005557
2022.0808,0.005506
2023.9444,0.005115
2025.8081,0.005429
2027.6718,0.005935
2029.5355,0.005726
2031.3991,0.005342
2033.2628,0.005262
2035.1265,0.005792
2036.9901,0.006714
2038.8538,0.006870
2040.7175,0.006269
2042.5811,0.006068
2044.4448,0.006591
2046.3085,0.006927
2048.1721,0.006961
2050.0358,0.007069
2051.8995,0.006823
2053.7631,0.006447
2055.6268,0.006265
2057.4905,0.005797
2059.3542,0.005603
2061.2178,0.005849
2063.0815,0.005796
2064.9452,0.005832
2066.8088,0.006200
2068.6725,0.006381
2070.5362,0.006187
2072.3998,0.005898
2074.2635,0.005988
2076.1272,0.006238
2077.9908,0.006228
2079.8545,0.006161
2081.7182,0.006070
2083.5819,0.006000
2085.4455,0.006101
2087.3092,0.006014
2089.1729,0.005517
2091.0365,0.005136
2092.9002,0.005169
2094.7639,0.005569
2096.6275,0.005666
2098.4912,0.005275
2100.3549,0.005060
2102.2185,0.005291
2104.0822,0.005691
2105.9459,0.005745
2107.8095,0.005665
2109.6732,0.005651
2111.5369,0.005606
2113.4006,0.005716
2115.2642,0.005688
2117.1279,0.005202
2118.9916,0.004785
2120.8552,0.004887
2122.7189,0.004977
2124.5826,0.004551
2126.4462,0.004284
2128.3099,0.004174
2130.1736,0.003934
2132.0372,0.003837
2133.9009,0.003789
2135.7646,0.003941
2137.6282,0.004317
2139.4919,0.004445
2141.3556,0.004229
2143.2193,0.004024
2145.0829,0.004124
2146.9466,0.004284
2148.8103,0.004140
2150.6739,0.003717
2152.5376,0.003016
2154.4013,0.002718
2156.2649,0.003377
2158.1286,0.004615
2159.9923,0.006223
2161.8559,0.007199
2163.7196,0.007253
2165.5833,0.007232
2167.4470,0.006742
2169.3106,0.006103
2171.1743,0.005941
2173.0380,0.005690
2174.9016,0.005403
2176.7653,0.005926
2178.6290,0.006335
2180.4926,0.005853
2182.3563,0.005667
2184.2200,0.006191
2186.0836,0.006262
2187.9473,0.006212
2189.8110,0.006158
2191.6746,0.005858
2193.5383,0.005907
2195.4020,0.006112
2197.2657,0.005779
2199.1293,0.005910
2200.9930,0.006289
2202.8567,0.006151
2204.7203,0.006034
2206.5840,0.005861
2208.4477,0.005666
2210.3113,0.005612
2212.1750,0.005585
2214.0387,0.005400
2215.9023,0.005154
2217.7660,0.005062
2219.6297,0.004892
2221.4934,0.005336
2223.3570,0.005602
2225.2207,0.005323
2227.0844,0.005256
2228.9480,0.005459
2230.8117,0.005739
2232.6754,0.005878
2234.5390,0.005621
2236.4027,0.005402
2238.2664,0.005514
2240.1300,0.005505
2241.9937,0.005226
2243.8574,0.005092
2245.7210,0.005379
2247.5847,0.005513
2249.4484,0.005033
2251.3121,0.004923
2253.1757,0.005241
2255.0394,0.005395
2256.9031,0.005353
2258.7667,0.005251
2260.6304,0.005217
2262.4941,0.005222
2264.3577,0.005343
2266.2214,0.005437
2268.0851,0.005393
2269.9487,0.005349
2271.8124,0.005319
2273.6761,0.005533
2275.5397,0.005626
2277.4034,0.005617
2279.2671,0.005738
2281.1308,0.005703
2282.9944,0.005664
2284.8581,0.005852
2286.7218,0.005852
2288.5854,0.005742
2290.4491,0.005558
2292.3128,0.005305
2294.1764,0.005256
2296.0401,0.005182
2297.9038,0.005127
2299.7674,0.005137
2301.6311,0.005160
2303.4948,0.005207
2305.3585,0.005265
2307.2221,0.005341
2309.0858,0.005405
2310.9495,0.005511
2312.8131,0.005686
2314.6768,0.005817
2316.5405,0.005963
2318.4041,0.006072
2320.2678,0.006344
2322.1315,0.006926
2323.9951,0.007099
2325.8588,0.006421
2327.7225,0.005517
2329.5861,0.005346
2331.4498,0.005484
2333.3135,0.005607
2335.1772,0.005768
2337.0408,0.005942
2338.9045,0.005872
2340.7682,0.005941
2342.6318,0.006066
2344.4955,0.005846
2346.3592,0.005346
2348.2228,0.004860
2350.0865,0.004422
2351.9502,0.004559
2353.8138,0.005413
2355.6775,0.005850
2357.5412,0.005942
2359.4049,0.006236
2361.2685,0.006329
2363.1322,0.006032
2364.9959,0.006165
2366.8595,0.006237
2368.7232,0.005887
2370.5869,0.005602
2372.4505,0.005221
2374.3142,0.004856
2376.1779,0.004722
2378.0415,0.004534
2379.9052,0.004107
2381.7689,0.003686
2383.6325,0.003392
2385.4962,0.003182
2387.3599,0.003089
2389.2236,0.003117
2391.0872,0.003199
2392.9509,0.003256
2394.8146,0.003161
2396.6782,0.003055
2398.5419,0.003023
2400.4056,0.003047
2402.2692,0.003180
2404.1329,0.003152
2405.9966,0.003022
2407.8602,0.003117
2409.7239,0.003247
2411.5876,0.003224
2413.4512,0.003114
2415.3149,0.002996
2417.1786,0.003181
2419.0423,0.003416
2420.9059,0.003267
2422.7696,0.003216
2424.6333,0.003205
2426.4969,0.003196
2428.3606,0.003302
2430.2243,0.003282
2432.0879,0.003386
2433.9516,0.003379
2435.8153,0.003379
2437.6789,0.003590
2439.5426,0.003606
2441.4063,0.003476
2443.2700,0.003466
2445.1336,0.003467
2446.9973,0.003495
2448.8610,0.003496
2450.7246,0.003428
2452.5883,0.003502
2454.4520,0.003633
2456.3156,0.003616
2458.1793,0.003494
2460.0430,0.003380
2461.9066,0.003262
2463.7703,0.003219
2465.6340,0.003342
2467.4976,0.003418
2469.3613,0.003393
2471.2250,0.003430
2473.0887,0.003316
2474.9523,0.003164
2476.8160,0.003163
2478.6797,0.003206
2480.5433,0.003263
2482.4070,0.003210
2484.2707,0.003202
2486.1343,0.003206
2487.9980,0.003211
2489.8617,0.003219
2491.7253,0.003236
2493.5890,0.003306
2495.4527,0.003384
2497.3164,0.003423
2499.1800,0.003409
2501.0437,0.003295
2502.9074,0.003027
2504.7710,0.003012
2506.6347,0.003251
2508.4984,0.003244
2510.3620,0.003253
2512.2257,0.003379
2514.0894,0.003308
2515.9530,0.003068
2517.8167,0.002986
2519.6804,0.003064
2521.5440,0.003144
2523.4077,0.003204
2525.2714,0.003214
2527.1351,0.003102
2528.9987,0.003053
2530.8624,0.003122
2532.7261,0.003168
2534.5897,0.003215
2536.4534,0.003173
2538.3171,0.003059
2540.1807,0.003063
2542.0444,0.003260
2543.9081,0.003361
2545.7717,0.003240
2547.6354,0.003227
2549.4991,0.003251
2551.3627,0.003283
2553.2264,0.003310
2555.0901,0.003257
2556.9538,0.003259
2558.8174,0.003348
2560.6811,0.003312
2562.5448,0.003243
2564.4084,0.003382
2566.2721,0.003419
2568.1358,0.003435
2569.9994,0.003435
2571.8631,0.003546
2573.7268,0.003588
2575.5904,0.003404
2577.4541,0.003435
2579.3178,0.003498
2581.1815,0.003316
2583.0451,0.003291
2584.9088,0.003328
2586.7725,0.003408
2588.6361,0.003506
2590.4998,0.003451
2592.3635,0.003364
2594.2271,0.003392
2596.0908,0.003390
2597.9545,0.003429
2599.8181,0.003511
2601.6818,0.003532
2603.5455,0.003468
2605.4091,0.003451
2607.2728,0.003519
2609.1365,0.003673
2611.0002,0.003675
2612.8638,0.003582
2614.7275,0.003604
2616.5912,0.003652
2618.4548,0.003602
2620.3185,0.003552
2622.1822,0.003574
2624.0458,0.003616
2625.9095,0.003650
2627.7732,0.003725
2629.6368,0.003796
2631.5005,0.003783
2633.3642,0.003736
2635.2279,0.003722
2637.0915,0.003728
2638.9552,0.003700
2640.8189,0.003726
2642.6825,0.003826
2644.5462,0.003791
2646.4099,0.003722
2648.2735,0.003708
2650.1372,0.003601
2652.0009,0.003564
2653.8645,0.003575
2655.7282,0.003424
2657.5919,0.003342
2659.4555,0.003366
2661.3192,0.003240
2663.1829,0.003103
2665.0466,0.003038
2666.9102,0.002990
2668.7739,0.003013
2670.6376,0.003031
2672.5012,0.002934
2674.3649,0.002925
2676.2286,0.002969
2678.0922,0.002909
2679.9559,0.002883
2681.8196,0.002966
2683.6832,0.003053
2685.5469,0.003001
2687.4106,0.002967
2689.2742,0.003004
2691.1379,0.002994
2693.0016,0.002957
2694.8653,0.002972
2696.7289,0.003052
2698.5926,0.003095
2700.4563,0.003054
2702.3199,0.003120
2704.1836,0.003127
2706.0473,0.002996
2707.9109,0.003030
2709.7746,0.003196
2711.6383,0.003212
2713.5019,0.003186
2715.3656,0.003171
2717.2293,0.003104
2719.0930,0.003059
2720.9566,0.003041
2722.8203,0.003052
2724.6840,0.003152
2726.5476,0.003165
2728.4113,0.003177
2730.2750,0.003283
2732.1386,0.003285
2734.0023,0.003243
2735.8660,0.003254
2737.7296,0.003233
2739.5933,0.003248
2741.4570,0.003259
2743.3206,0.003292
2745.1843,0.003348
2747.0480,0.003444
2748.9117,0.003434
2750.7753,0.003399
2752.6390,0.003320
2754.5027,0.003236
2756.3663,0.003265
2758.2300,0.003326
2760.0937,0.003362
2761.9573,0.003406
2763.8210,0.003425
2765.6847,0.003454
2767.5483,0.003552
2769.4120,0.003605
2771.2757,0.003565
2773.1394,0.003554
2775.0030,0.003564
2776.8667,0.003627
2778.7304,0.003659
2780.5940,0.003634
2782.4577,0.003672
2784.3214,0.003675
2786.1850,0.003662
2788.0487,0.003730
2789.9124,0.003767
2791.7760,0.003771
2793.6397,0.003838
2795.5034,0.003893
2797.3670,0.003944
2799.2307,0.003981
2801.0944,0.003909
2802.9581,0.003979
2804.8217,0.004060
2806.6854,0.004066
2808.5491,0.004001
2810.4127,0.004073
2812.2764,0.004164
2814.1401,0.004149
2816.0037,0.004178
2817.8674,0.004240
2819.7311,0.004249
2821.5947,0.004302
2823.4584,0.004302
2825.3221,0.004286
2827.1857,0.004342
2829.0494,0.004452
2830.9131,0.004560
2832.7768,0.004612
2834.6404,0.004628
2836.5041,0.004606
2838.3678,0.004548
2840.2314,0.004541
2842.0951,0.004695
2843.9588,0.004797
2845.8224,0.004804
2847.6861,0.004867
2849.5498,0.004907
2851.4134,0.005028
2853.2771,0.005127
2855.1408,0.005220
2857.0045,0.005196
2858.8681,0.005219
2860.7318,0.005351
2862.5955,0.005416
2864.4591,0.005363
2866.3228,0.005389
2868.1865,0.005394
2870.0501,0.005397
2871.9138,0.005535
2873.7775,0.005559
2875.6411,0.005478
2877.5048,0.005515
2879.3685,0.005586
2881.2321,0.005691
2883.0958,0.005681
2884.9595,0.005739
2886.8232,0.005858
2888.6868,0.005904
2890.5505,0.005895
2892.4142,0.005911
2894.2778,0.006016
2896.1415,0.006146
2898.0052,0.006164
2899.8688,0.006212
2901.7325,0.006235
2903.5962,0.006260
2905.4598,0.006345
2907.3235,0.006356
2909.1872,0.006366
2911.0509,0.006490
2912.9145,0.006603
2914.7782,0.006695
2916.6419,0.006789
2918.5055,0.006976
2920.3692,0.007051
2922.2329,0.007151
2924.0965,0.007161
2925.9602,0.007283
2927.8239,0.007406
2929.6875,0.007424
2931.5512,0.007384
2933.4149,0.007452
2935.2785,0.007441
2937.1422,0.007364
2939.0059,0.007352
2940.8696,0.007493
2942.7332,0.007530
2944.5969,0.007555
2946.4606,0.007676
2948.3242,0.007673
2950.1879,0.007653
2952.0516,0.007761
2953.9152,0.007674
2955.7789,0.007604
2957.6426,0.007655
2959.5062,0.007830
2961.3699,0.007936
2963.2336,0.007928
2965.0972,0.007865
2966.9609,0.007883
2968.8246,0.007947
2970.6883,0.007950
2972.5519,0.007893
2974.4156,0.007814
2976.2793,0.007788
2978.1429,0.007928
2980.0066,0.007944
2981.8703,0.007984
2983.7339,0.008034
2985.5976,0.008016
2987.4613,0.007972
2989.3249,0.008028
2991.1886,0.008105
2993.0523,0.008164
2994.9160,0.008265
2996.7796,0.008363
2998.6433,0.008417
3000.5070,0.008544
3002.3706,0.008526
3004.2343,0.008433
3006.0980,0.008501
3007.9616,0.008694
3009.8253,0.008764
3011.6890,0.008811
3013.5526,0.008929
3015.4163,0.009071
3017.2800,0.009168
3019.1436,0.009359
3021.0073,0.009473
3022.8710,0.009568
3024.7347,0.009563
3026.5983,0.009603
3028.4620,0.009671
3030.3257,0.009814
3032.1893,0.009950
3034.0530,0.010157
3035.9167,0.010383
3037.7803,0.010486
3039.6440,0.010509
3041.5077,0.010575
3043.3713,0.010624
3045.2350,0.010629
3047.0987,0.010662
3048.9624,0.010881
3050.8260,0.011157
3052.6897,0.011388
3054.5534,0.011557
3056.4170,0.011738
3058.2807,0.011732
3060.1444,0.011866
3062.0080,0.012006
3063.8717,0.012065
3065.7354,0.012262
3067.5990,0.012466
3069.4627,0.012515
3071.3264,0.012682
3073.1900,0.012774
3075.0537,0.012798
3076.9174,0.013042
3078.7811,0.013280
3080.6447,0.013342
3082.5084,0.013461
3084.3721,0.013576
3086.2357,0.013866
3088.0994,0.014097
3089.9631,0.014123
3091.8267,0.014175
3093.6904,0.014405
3095.5541,0.014498
3097.4177,0.014749
3099.2814,0.014980
3101.1451,0.015083
3103.0087,0.015146
3104.8724,0.015319
3106.7361,0.015523
3108.5998,0.015831
3110.4634,0.015971
3112.3271,0.016074
3114.1908,0.016137
3116.0544,0.016318
3117.9181,0.016519
3119.7818,0.016722
3121.6454,0.016957
3123.5091,0.017179
3125.3728,0.017328
3127.2364,0.017545
3129.1001,0.017721
3130.9638,0.018049
3132.8275,0.018300
3134.6911,0.018495
3136.5548,0.018675
3138.4185,0.018812
3140.2821,0.018991
3142.1458,0.019343
3144.0095,0.019565
3145.8731,0.019757
3147.7368,0.019971
3149.6005,0.020264
3151.4641,0.020510
3153.3278,0.020827
3155.1915,0.021035
3157.0551,0.021291
3158.9188,0.021597
3160.7825,0.021852
3162.6462,0.021948
3164.5098,0.022161
3166.3735,0.022497
3168.2372,0.022792
3170.1008,0.022928
3171.9645,0.023119
3173.8282,0.023248
3175.6918,0.023562
3177.5555,0.023846
3179.4192,0.024070
3181.2828,0.024322
3183.1465,0.024703
3185.0102,0.024964
3186.8739,0.025180
3188.7375,0.025338
3190.6012,0.025556
3192.4649,0.025710
3194.3285,0.026087
3196.1922,0.026378
3198.0559,0.026655
3199.9195,0.026860
3201.7832,0.027045
3203.6469,0.027174
3205.5105,0.027300
3207.3742,0.027413
3209.2379,0.027649
3211.1015,0.027815
3212.9652,0.028134
3214.8289,0.028441
3216.6926,0.028611
3218.5562,0.028711
3220.4199,0.028996
3222.2836,0.029246
3224.1472,0.029481
3226.0109,0.029575
3227.8746,0.029760
3229.7382,0.029949
3231.6019,0.030112
3233.4656,0.030305
3235.3292,0.030508
3237.1929,0.030656
3239.0566,0.030830
3240.9202,0.030853
3242.7839,0.031079
3244.6476,0.031177
3246.5113,0.031220
3248.3749,0.031633
3250.2386,0.032108
3252.1023,0.032024
3253.9659,0.031959
3255.8296,0.031986
3257.6933,0.032107
3259.5569,0.032377
3261.4206,0.032625
3263.2843,0.032566
3265.1479,0.032741
3267.0116,0.032864
3268.8753,0.032844
3270.7390,0.032815
3272.6026,0.032974
3274.4663,0.033155
3276.3300,0.033431
3278.1936,0.033465
3280.0573,0.033513
3281.9210,0.033696
3283.7846,0.033942
3285.6483,0.034048
3287.5120,0.034223
3289.3756,0.034269
3291.2393,0.034205
3293.1030,0.034235
3294.9666,0.034431
3296.8303,0.034453
3298.6940,0.034487
3300.5577,0.034618
3302.4213,0.034799
3304.2850,0.034811
3306.1487,0.034923
3308.0123,0.035012
3309.8760,0.035212
3311.7397,0.035431
3313.6033,0.035651
3315.4670,0.035555
3317.3307,0.035635
3319.1943,0.035968
3321.0580,0.036124
3322.9217,0.036042
3324.7854,0.036159
3326.6490,0.036227
3328.5127,0.036184
3330.3764,0.036143
3332.2400,0.036413
3334.1037,0.036634
3335.9674,0.036843
3337.8310,0.036938
3339.6947,0.036815
3341.5584,0.036613
3343.4220,0.036905
3345.2857,0.037222
3347.1494,0.037307
3349.0130,0.037226
3350.8767,0.037315
3352.7404,0.037346
3354.6041,0.037474
3356.4677,0.037621
3358.3314,0.037711
3360.1951,0.037823
3362.0587,0.037913
3363.9224,0.037618
3365.7861,0.037586
3367.6497,0.037800
3369.5134,0.037942
3371.3771,0.037899
3373.2407,0.037951
3375.1044,0.037817
3376.9681,0.037766
3378.8317,0.037847
3380.6954,0.038042
3382.5591,0.038086
3384.4228,0.037941
3386.2864,0.037741
3388.1501,0.037646
3390.0138,0.037485
3391.8774,0.037492
3393.7411,0.037559
3395.6048,0.037504
3397.4684,0.037264
3399.3321,0.037085
3401.1958,0.037024
3403.0594,0.037216
3404.9231,0.037323
3406.7868,0.037407
3408.6505,0.037263
3410.5141,0.037058
3412.3778,0.036812
3414.2415,0.036694
3416.1051,0.036466
3417.9688,0.036171
3419.8325,0.036100
3421.6961,0.036121
3423.5598,0.035938
3425.4235,0.035702
3427.2871,0.035506
3429.1508,0.035496
3431.0145,0.035225
3432.8781,0.035042
3434.7418,0.034994
3436.6055,0.034823
3438.4692,0.034468
3440.3328,0.034404
3442.1965,0.034579
3444.0602,0.034410
3445.9238,0.033828
3447.7875,0.033633
3449.6512,0.033583
3451.5148,0.033384
3453.3785,0.032875
3455.2422,0.032488
3457.1058,0.032364
3458.9695,0.032414
3460.8332,0.032155
3462.6969,0.031745
3464.5605,0.031312
3466.4242,0.031058
3468.2879,0.030891
3470.1515,0.030827
3472.0152,0.030705
3473.8789,0.030505
3475.7425,0.030062
3477.6062,0.029617
3479.4699,0.029341
3481.3335,0.029417
3483.1972,0.029298
3485.0609,0.028809
3486.9245,0.028303
3488.7882,0.027995
3490.6519,0.027825
3492.5156,0.027506
3494.3792,0.026847
3496.2429,0.026488
3498.1066,0.026381
3499.9702,0.026378
3501.8339,0.026055
3503.6976,0.025635
3505.5612,0.025606
3507.4249,0.025597
3509.2886,0.025223
3511.1522,0.024904
3513.0159,0.024534
3514.8796,0.024034
3516.7432,0.023664
3518.6069,0.023696
3520.4706,0.023604
3522.3343,0.023118
3524.1979,0.022603
3526.0616,0.022567
3527.9253,0.022369
3529.7889,0.022113
3531.6526,0.022000
3533.5163,0.021584
3535.3799,0.021021
3537.2436,0.020733
3539.1073,0.020397
3540.9709,0.019935
3542.8346,0.019623
3544.6983,0.019633
3546.5620,0.019483
3548.4256,0.019134
3550.2893,0.018868
3552.1530,0.018591
3554.0166,0.018223
3555.8803,0.018037
3557.7440,0.017507
3559.6076,0.016909
3561.4713,0.016671
3563.3350,0.016822
3565.1986,0.016961
3567.0623,0.016957
3568.9260,0.016592
3570.7896,0.016188
3572.6533,0.015660
3574.5170,0.015133
3576.3807,0.014774
3578.2443,0.014637
3580.1080,0.014323
3581.9717,0.013970
3583.8353,0.013663
3585.6990,0.013305
3587.5627,0.013088
3589.4263,0.013277
3591.2900,0.013188
3593.1537,0.012642
3595.0173,0.012477
3596.8810,0.012609
3598.7447,0.012280
3600.6084,0.011685
3602.4720,0.011476
3604.3357,0.011437
3606.1994,0.010825
3608.0630,0.010358
3609.9267,0.010379
3611.7904,0.010238
3613.6540,0.009747
3615.5177,0.009699
3617.3814,0.009554
3619.2450,0.009122
3621.1087,0.008929
3622.9724,0.008782
3624.8360,0.008447
3626.6997,0.008121
3628.5634,0.007882
3630.4271,0.008009
3632.2907,0.007990
3634.1544,0.007299
3636.0181,0.006860
3637.8817,0.006696
3639.7454,0.006095
3641.6091,0.005609
3643.4727,0.005389
3645.3364,0.005268
3647.2001,0.004872
3649.0637,0.004729
3650.9274,0.005139
3652.7911,0.005169
3654.6547,0.004509
3656.5184,0.003741
3658.3821,0.003816
3660.2458,0.003817
3662.1094,0.003166
3663.9731,0.002671
3665.8368,0.002381
3667.7004,0.002150
3669.5641,0.002004
3671.4278,0.002384
3673.2914,0.002384
3675.1551,0.001763
3677.0188,0.001804
3678.8824,0.002063
3680.7461,0.001350
3682.6098,0.001228
3684.4735,0.001261
3686.3371,0.001115
3688.2008,0.001030
3690.0645,0.001303
3691.9281,0.001493
3693.7918,0.001264
3695.6555,0.001127
3697.5191,0.000937
3699.3828,0.000569
3701.2465,0.000380
3703.1101,0.000545
3704.9738,0.000711
3706.8375,0.000410
3708.7011,0.000211
3710.5648,0.000350
3712.4285,0.000571
3714.2922,0.000519
3716.1558,0.000301
3718.0195,-0.000037
3719.8832,-0.000153
3721.7468,-0.000170
3723.6105,-0.000133
3725.4742,0.000135
3727.3378,0.000321
3729.2015,0.000354
3731.0652,-0.000024
3732.9288,-0.000221
3734.7925,0.000193
3736.6562,0.000010
3738.5199,-0.000205
3740.3835,-0.000503
3742.2472,-0.000743
3744.1109,-0.000567
3745.9745,0.000095
3747.8382,0.000546
3749.7019,-0.000384
3751.5655,-0.000091
3753.4292,0.000566
3755.2929,0.000319
3757.1565,-0.000198
3759.0202,-0.000358
3760.8839,-0.000111
3762.7475,0.000050
3764.6112,-0.000082
3766.4749,-0.000190
3768.3386,0.000112
3770.2022,-0.000093
3772.0659,-0.000051
3773.9296,-0.000068
3775.7932,-0.000239
3777.6569,-0.000143
3779.5206,-0.000232
3781.3842,-0.000072
3783.2479,-0.000042
3785.1116,-0.000303
3786.9752,-0.000166
3788.8389,-0.000378
3790.7026,-0.000672
3792.5662,-0.000529
3794.4299,-0.000486
3796.2936,-0.000622
3798.1573,-0.000507
3800.0209,-0.000500
3801.8846,-0.000591
3803.7483,0.000127
3805.6119,-0.000181
3807.4756,-0.000837
3809.3393,-0.000285
3811.2029,-0.000252
3813.0666,-0.000604
3814.9303,-0.000833
3816.7939,-0.000918
3818.6576,-0.000274
3820.5213,-0.000398
3822.3850,-0.000434
3824.2486,0.000056
3826.1123,-0.000510
3827.9760,-0.000647
3829.8396,-0.000435
3831.7033,-0.000714
3833.5670,-0.000696
3835.4306,-0.000689
3837.2943,-0.000880
3839.1580,-0.000649
3841.0216,-0.000344
3842.8853,-0.000532
3844.7490,-0.000675
3846.6126,-0.000465
3848.4763,-0.000692
3850.3400,-0.001142
3852.2037,-0.001214
3854.0673,-0.000649
3855.9310,0.000120
3857.7947,-0.000302
3859.6583,-0.000871
3861.5220,-0.000908
3863.3857,-0.000806
3865.2493,-0.000492
3867.1130,-0.000281
3868.9767,-0.000466
3870.8403,-0.000847
3872.7040,-0.000228
3874.5677,-0.000532
3876.4314,-0.000517
3878.2950,-0.000595
3880.1587,-0.000903
3882.0224,-0.000473
3883.8860,-0.000277
3885.7497,-0.000717
3887.6134,-0.000502
3889.4770,-0.000632
3891.3407,-0.001176
3893.2044,-0.000612
3895.0680,-0.000394
3896.9317,-0.000639
3898.7954,-0.000786
3900.6590,-0.000647
3902.5227,-0.000380
3904.3864,-0.000638
3906.2501,-0.000438
3908.1137,-0.000394
3909.9774,-0.000669
3911.8411,-0.000720
3913.7047,-0.000579
3915.5684,-0.000541
3917.4321,-0.000463
3919.2957,-0.000330
3921.1594,-0.000443
3923.0231,-0.000507
3924.8867,-0.000533
3926.7504,-0.000458
3928.6141,-0.000420
3930.4777,-0.000637
3932.3414,-0.000747
3934.2051,-0.000660
3936.0688,-0.000564
3937.9324,-0.000661
3939.7961,-0.000529
3941.6598,-0.000525
3943.5234,-0.000510
3945.3871,-0.000372
3947.2508,-0.000547
3949.1144,-0.000642
3950.9781,-0.000462
3952.8418,-0.000482
3954.7054,-0.000546
3956.5691,-0.000546
3958.4328,-0.000503
3960.2965,-0.000473
3962.1601,-0.000466
3964.0238,-0.000626
3965.8875,-0.000627
3967.7511,-0.000562
3969.6148,-0.000541
3971.4785,-0.000567
3973.3421,-0.000531
3975.2058,-0.000551
3977.0695,-0.000600
3978.9331,-0.000727
3980.7968,-0.000719
3982.6605,-0.000664
3984.5241,-0.000614
3986.3878,-0.000591
3988.2515,-0.000559
3990.1152,-0.000589
3991.9788,-0.000652
3993.8425,-0.000652
3995.7062,-0.000575
3997.5698,-0.000675
3999.4335,-0.000706
