Wavenumber,Intensity
650.4205,0.093753
652.2841,0.093006
654.1478,0.094105
656.0115,0.093490
657.8751,0.091405
659.7388,0.091200
661.6025,0.093290
663.4661,0.092562
665.3298,0.090220
667.1935,0.090208
669.0571,0.091699
670.9208,0.089513
672.7845,0.087718
674.6481,0.086306
676.5118,0.086065
678.3755,0.085633
680.2392,0.084323
682.1028,0.083702
683.9665,0.084200
685.8302,0.083653
687.6938,0.082967
689.5575,0.082436
691.4212,0.082070
693.2848,0.082763
695.1485,0.083369
697.0122,0.082104
698.8758,0.080964
700.7395,0.079194
702.6032,0.078279
704.4669,0.077320
706.3305,0.076217
708.1942,0.075430
710.0579,0.074705
711.9215,0.073657
713.7852,0.072942
715.6489,0.071955
717.5125,0.070908
719.3762,0.070886
721.2399,0.071000
723.1035,0.069812
724.9672,0.068630
726.8309,0.068279
728.6945,0.068217
730.5582,0.067274
732.4219,0.066413
734.2856,0.066337
736.1492,0.066312
738.0129,0.066051
739.8766,0.065669
741.7402,0.065107
743.6039,0.064841
745.4676,0.064321
747.3312,0.063713
749.1949,0.063252
751.0586,0.062604
752.9222,0.061767
754.7859,0.061126
756.6496,0.060419
758.5132,0.059802
760.3769,0.059348
762.2406,0.058755
764.1043,0.058053
765.9679,0.057966
767.8316,0.057854
769.6953,0.057200
771.5589,0.056308
773.4226,0.055974
775.2863,0.055608
777.1499,0.054635
779.0136,0.053687
780.8773,0.053693
782.7409,0.053647
784.6046,0.053277
786.4683,0.052518
788.3320,0.051558
790.1956,0.051460
792.0593,0.051451
793.9230,0.051152
795.7866,0.050696
797.6503,0.050121
799.5140,0.049982
801.3776,0.049696
803.2413,0.049276
805.1050,0.049083
806.9686,0.048974
808.8323,0.048720
810.6960,0.048322
812.5596,0.048202
814.4233,0.047916
816.2870,0.047282
818.1507,0.047020
820.0143,0.046594
821.8780,0.045949
823.7417,0.045472
825.6053,0.044973
827.4690,0.044204
829.3327,0.043604
831.1963,0.043524
833.0600,0.043273
834.9237,0.042946
836.7873,0.042574
838.6510,0.041779
840.5147,0.041084
842.3784,0.040863
844.2420,0.040672
846.1057,0.040468
847.9694,0.040404
849.8330,0.040341
851.6967,0.040037
853.5604,0.039862
855.4240,0.039696
857.2877,0.039562
859.1514,0.039559
861.0150,0.039535
862.8787,0.039702
864.7424,0.039848
866.6060,0.040044
868.4697,0.040372
870.3334,0.040778
872.1971,0.041069
874.0607,0.041013
875.9244,0.040955
877.7881,0.041083
879.6517,0.041089
881.5154,0.040994
883.3791,0.040836
885.2427,0.040837
887.1064,0.040883
888.9701,0.040826
890.8337,0.040969
892.6974,0.041207
894.5611,0.041260
896.4247,0.041263
898.2884,0.041303
900.1521,0.041327
902.0158,0.041406
903.8794,0.041580
905.7431,0.041641
907.6068,0.041752
909.4704,0.041957
911.3341,0.042253
913.1978,0.042412
915.0614,0.042535
916.9251,0.042830
918.7888,0.043132
920.6524,0.043329
922.5161,0.043311
924.3798,0.043115
926.2435,0.043007
928.1071,0.043112
929.9708,0.043152
931.8345,0.043079
933.6981,0.043141
935.5618,0.043480
937.4255,0.043682
939.2891,0.043709
941.1528,0.043829
943.0165,0.043985
944.8801,0.044339
946.7438,0.044636
948.6075,0.044925
950.4711,0.045377
952.3348,0.045696
954.1985,0.046071
956.0622,0.046704
957.9258,0.047428
959.7895,0.048188
961.6532,0.048943
963.5168,0.049630
965.3805,0.050297
967.2442,0.050778
969.1078,0.050986
970.9715,0.051124
972.8352,0.051218
974.6988,0.051351
976.5625,0.051467
978.4262,0.051766
980.2899,0.052149
982.1535,0.052620
984.0172,0.053120
985.8809,0.053682
987.7445,0.054360
989.6082,0.055024
991.4719,0.055701
993.3355,0.056482
995.1992,0.057202
997.0629,0.057859
998.9265,0.058453
1000.7902,0.059097
1002.6539,0.059840
1004.5175,0.060594
1006.3812,0.061478
1008.2449,0.062623
1010.1086,0.063825
1011.9722,0.064952
1013.8359,0.066179
1015.6996,0.067485
1017.5632,0.068734
1019.4269,0.069873
1021.2906,0.070914
1023.1542,0.071819
1025.0179,0.072472
1026.8816,0.072977
1028.7452,0.073503
1030.6089,0.073965
1032.4726,0.074223
1034.3362,0.074475
1036.1999,0.074741
1038.0636,0.074870
1039.9273,0.075001
1041.7909,0.075143
1043.6546,0.075136
1045.5183,0.075082
1047.3819,0.074957
1049.2456,0.074925
1051.1093,0.075008
1052.9729,0.075035
1054.8366,0.074964
1056.7003,0.074966
1058.5639,0.074996
1060.4276,0.074931
1062.2913,0.074774
1064.1550,0.074839
1066.0186,0.074988
1067.8823,0.074909
1069.7460,0.074747
1071.6096,0.074667
1073.4733,0.074323
1075.3370,0.073629
1077.2006,0.072826
1079.0643,0.071950
1080.9280,0.070762
1082.7916,0.069544
1084.6553,0.068331
1086.5190,0.067124
1088.3826,0.065997
1090.2463,0.064981
1092.1100,0.064000
1093.9737,0.063224
1095.8373,0.062554
1097.7010,0.061885
1099.5647,0.061256
1101.4283,0.060720
1103.2920,0.060268
1105.1557,0.059775
1107.0193,0.059369
1108.8830,0.059153
1110.7467,0.058918
1112.6103,0.058602
1114.4740,0.058317
1116.3377,0.057965
1118.2014,0.057500
1120.0650,0.057160
1121.9287,0.056905
1123.7924,0.056549
1125.6560,0.056148
1127.5197,0.055790
1129.3834,0.055357
1131.2470,0.054903
1133.1107,0.054457
1134.9744,0.053935
1136.8380,0.053360
1138.7017,0.052932
1140.5654,0.052637
1142.4290,0.052517
1144.2927,0.052504
1146.1564,0.052575
1148.0201,0.052773
1149.8837,0.053033
1151.7474,0.053317
1153.6111,0.053644
1155.4747,0.053868
1157.3384,0.053976
1159.2021,0.053995
1161.0657,0.053887
1162.9294,0.053736
1164.7931,0.053518
1166.6567,0.053229
1168.5204,0.052876
1170.3841,0.052396
1172.2477,0.051771
1174.1114,0.051055
1175.9751,0.050393
1177.8388,0.049923
1179.7024,0.049687
1181.5661,0.049754
1183.4298,0.050035
1185.2934,0.050356
1187.1571,0.050734
1189.0208,0.051197
1190.8844,0.051778
1192.7481,0.052387
1194.6118,0.052916
1196.4754,0.053505
1198.3391,0.054105
1200.2028,0.054693
1202.0665,0.055252
1203.9301,0.055779
1205.7938,0.056222
1207.6575,0.056469
1209.5211,0.056597
1211.3848,0.056744
1213.2485,0.056908
1215.1121,0.057149
1216.9758,0.057557
1218.8395,0.058068
1220.7031,0.058694
1222.5668,0.059376
1224.4305,0.060011
1226.2941,0.060522
1228.1578,0.060927
1230.0215,0.061305
1231.8852,0.061667
1233.7488,0.061901
1235.6125,0.061926
1237.4762,0.061827
1239.3398,0.061695
1241.2035,0.061365
1243.0672,0.060906
1244.9308,0.060373
1246.7945,0.059765
1248.6582,0.058996
1250.5218,0.058249
1252.3855,0.057562
1254.2492,0.056913
1256.1129,0.056392
1257.9765,0.055908
1259.8402,0.055542
1261.7039,0.055297
1263.5675,0.054968
1265.4312,0.054663
1267.2949,0.054443
1269.1585,0.054228
1271.0222,0.054054
1272.8859,0.053807
1274.7495,0.053547
1276.6132,0.053343
1278.4769,0.053248
1280.3405,0.053202
1282.2042,0.053045
1284.0679,0.052848
1285.9316,0.052795
1287.7952,0.052775
1289.6589,0.052758
1291.5226,0.052884
1293.3862,0.053037
1295.2499,0.053197
1297.1136,0.053400
1298.9772,0.053618
1300.8409,0.053746
1302.7046,0.053883
1304.5682,0.054055
1306.4319,0.054207
1308.2956,0.054295
1310.1592,0.054364
1312.0229,0.054449
1313.8866,0.054454
1315.7503,0.054248
1317.6139,0.054043
1319.4776,0.053842
1321.3413,0.053481
1323.2049,0.053186
1325.0686,0.053026
1326.9323,0.052756
1328.7959,0.052603
1330.6596,0.052580
1332.5233,0.052533
1334.3869,0.052437
1336.2506,0.052348
1338.1143,0.052621
1339.9780,0.053193
1341.8416,0.053179
1343.7053,0.052757
1345.5690,0.052507
1347.4326,0.052357
1349.2963,0.052225
1351.1600,0.052184
1353.0236,0.052178
1354.8873,0.052229
1356.7510,0.052164
1358.6146,0.052091
1360.4783,0.052502
1362.3420,0.053938
1364.2056,0.055173
1366.0693,0.055357
1367.9330,0.055678
1369.7967,0.056254
1371.6603,0.056712
1373.5240,0.057949
1375.3877,0.059308
1377.2513,0.059675
1379.1150,0.060076
1380.9787,0.060537
1382.8423,0.060684
1384.7060,0.060812
1386.5697,0.061656
1388.4333,0.062569
1390.2970,0.061958
1392.1607,0.061218
1394.0244,0.061549
1395.8880,0.062250
1397.7517,0.062267
1399.6154,0.062248
1401.4790,0.061650
1403.3427,0.060893
1405.2064,0.060972
1407.0700,0.060697
1408.9337,0.060044
1410.7974,0.059728
1412.6610,0.059331
1414.5247,0.058717
1416.3884,0.058500
1418.2520,0.059455
1420.1157,0.060499
1421.9794,0.059785
1423.8431,0.059496
1425.7067,0.059821
1427.5704,0.059988
1429.4341,0.060966
1431.2977,0.061795
1433.1614,0.061876
1435.0251,0.062717
1436.8887,0.065302
1438.7524,0.066156
1440.6161,0.065217
1442.4797,0.064920
1444.3434,0.064753
1446.2071,0.064625
1448.0707,0.064816
1449.9344,0.064307
1451.7981,0.063046
1453.6618,0.062028
1455.5254,0.061880
1457.3891,0.063013
1459.2528,0.061600
1461.1164,0.058736
1462.9801,0.057188
1464.8438,0.057068
1466.7074,0.056105
1468.5711,0.054036
1470.4348,0.052824
1472.2984,0.053553
1474.1621,0.054156
1476.0258,0.053472
1477.8895,0.052843
1479.7531,0.052393
1481.6168,0.052674
1483.4805,0.053010
1485.3441,0.053339
1487.2078,0.055200
1489.0715,0.058719
1490.9351,0.061686
1492.7988,0.062154
1494.6625,0.062802
1496.5261,0.066274
1498.3898,0.069590
1500.2535,0.070545
1502.1171,0.070725
1503.9808,0.071344
1505.8445,0.074659
1507.7082,0.080729
1509.5718,0.081357
1511.4355,0.080910
1513.2992,0.081232
1515.1628,0.081874
1517.0265,0.082753
1518.8902,0.083064
1520.7538,0.082913
1522.6175,0.083577
1524.4812,0.083318
1526.3448,0.083129
1528.2085,0.083134
1530.0722,0.082848
1531.9359,0.082547
1533.7995,0.082336
1535.6632,0.081755
1537.5269,0.080995
1539.3905,0.081208
1541.2542,0.081428
1543.1179,0.079724
1544.9815,0.078046
1546.8452,0.076398
1548.7089,0.074615
1550.5725,0.072571
1552.4362,0.070490
1554.2999,0.068438
1556.1635,0.066995
1558.0272,0.066004
1559.8909,0.065177
1561.7546,0.062691
1563.6182,0.060235
1565.4819,0.058679
1567.3456,0.057600
1569.2092,0.056834
1571.0729,0.056251
1572.9366,0.055020
1574.8002,0.054342
1576.6639,0.055018
1578.5276,0.054866
1580.3912,0.053973
1582.2549,0.053805
1584.1186,0.054155
1585.9822,0.054558
1587.8459,0.055094
1589.7096,0.055844
1591.5733,0.057035
1593.4369,0.058493
1595.3006,0.060030
1597.1643,0.061486
1599.0279,0.063057
1600.8916,0.064984
1602.7553,0.067201
1604.6189,0.069442
1606.4826,0.071725
1608.3463,0.074172
1610.2099,0.076501
1612.0736,0.078309
1613.9373,0.080036
1615.8010,0.082055
1617.6646,0.084579
1619.5283,0.085748
1621.3920,0.086206
1623.2556,0.087480
1625.1193,0.089144
1626.9830,0.089702
1628.8466,0.089716
1630.7103,0.089939
1632.5740,0.090153
1634.4376,0.090120
1636.3013,0.089390
1638.1650,0.088410
1640.0286,0.087131
1641.8923,0.086071
1643.7560,0.085189
1645.6197,0.084054
1647.4833,0.082529
1649.3470,0.081223
1651.2107,0.079614
1653.0743,0.077010
1654.9380,0.074302
1656.8017,0.072312
1658.6653,0.070150
1660.5290,0.067937
1662.3927,0.065364
1664.2563,0.063155
1666.1200,0.061194
1667.9837,0.059036
1669.8474,0.056690
1671.7110,0.054512
1673.5747,0.052266
1675.4384,0.050072
1677.3020,0.048022
1679.1657,0.045747
1681.0294,0.043529
1682.8930,0.041447
1684.7567,0.038860
1686.6204,0.036426
1688.4840,0.033766
1690.3477,0.031485
1692.2114,0.029045
1694.0750,0.026610
1695.9387,0.024282
1697.8024,0.022269
1699.6661,0.019764
1701.5297,0.018169
1703.3934,0.016459
1705.2571,0.014597
1707.1207,0.013654
1708.9844,0.012588
1710.8481,0.011361
1712.7117,0.010494
1714.5754,0.009919
1716.4391,0.009852
1718.3027,0.009832
1720.1664,0.009897
1722.0301,0.009099
1723.8937,0.008429
1725.7574,0.007992
1727.6211,0.007507
1729.4848,0.007125
1731.3484,0.006996
1733.2121,0.006762
1735.0758,0.007704
1736.9394,0.007876
1738.8031,0.006950
1740.6668,0.006929
1742.5304,0.006889
1744.3941,0.006583
1746.2578,0.006294
1748.1214,0.005855
1749.9851,0.005782
1751.8488,0.005792
1753.7125,0.005520
1755.5761,0.004803
1757.4398,0.004520
1759.3035,0.004389
1761.1671,0.003999
1763.0308,0.004270
1764.8945,0.004226
1766.7581,0.003619
1768.6218,0.003498
1770.4855,0.003541
1772.3491,0.003598
1774.2128,0.003976
1776.0765,0.003756
1777.9401,0.003563
1779.8038,0.003474
1781.6675,0.003657
1783.5312,0.003526
1785.3948,0.003445
1787.2585,0.003594
1789.1222,0.003357
1790.9858,0.003195
1792.8495,0.003450
1794.7132,0.003749
1796.5768,0.003510
1798.4405,0.003280
1800.3042,0.003205
1802.1678,0.003333
1804.0315,0.003379
1805.8952,0.003267
1807.7589,0.003163
1809.6225,0.003026
1811.4862,0.003056
1813.3499,0.003103
1815.2135,0.002853
1817.0772,0.002864
1818.9409,0.002944
1820.8045,0.002828
1822.6682,0.002787
1824.5319,0.002822
1826.3955,0.002932
1828.2592,0.002920
1830.1229,0.002976
1831.9865,0.003337
1833.8502,0.003126
1835.7139,0.002924
1837.5776,0.002689
1839.4412,0.002723
1841.3049,0.002937
1843.1686,0.003071
1845.0322,0.003072
1846.8959,0.003177
1848.7596,0.003134
1850.6232,0.003077
1852.4869,0.002752
1854.3506,0.002700
1856.2142,0.002728
1858.0779,0.002948
1859.9416,0.003078
1861.8052,0.002904
1863.6689,0.002762
1865.5326,0.002585
1867.3963,0.002795
1869.2599,0.003216
1871.1236,0.003179
1872.9873,0.002934
1874.8509,0.002926
1876.7146,0.003026
1878.5783,0.002812
1880.4419,0.002898
1882.3056,0.003013
1884.1693,0.002746
1886.0329,0.002489
1887.8966,0.002554
1889.7603,0.002934
1891.6240,0.003366
1893.4876,0.003163
1895.3513,0.002756
1897.2150,0.002389
1899.0786,0.002648
1900.9423,0.002922
1902.8060,0.002813
1904.6696,0.002450
1906.5333,0.002366
1908.3970,0.002879
1910.2606,0.003088
1912.1243,0.002603
1913.9880,0.002438
1915.8516,0.002650
1917.7153,0.002716
1919.5790,0.002923
1921.4427,0.003017
1923.3063,0.002766
1925.1700,0.002446
1927.0337,0.002123
1928.8973,0.001695
1930.7610,0.001634
1932.6247,0.001953
1934.4883,0.002162
1936.3520,0.001807
1938.2157,0.000897
1940.0793,0.001099
1941.9430,0.001979
1943.8067,0.002191
1945.6704,0.001584
1947.5340,0.001239
1949.3977,0.001250
1951.2614,0.001191
1953.1250,0.001172
1954.9887,0.001213
1956.8524,0.000597
1958.7160,0.000369
1960.5797,0.000422
1962.4434,0.000468
1964.3070,0.001044
1966.1707,0.001248
1968.0344,0.000849
1969.8980,0.000101
1971.7617,-0.000347
1973.6254,-0.000506
1975.4891,-0.000073
1977.3527,0.000855
1979.2164,0.000929
1981.0801,0.000404
1982.9437,0.000142
1984.8074,0.000651
1986.6711,0.001193
1988.5347,0.001877
1990.3984,0.002107
1992.2621,0.001862
1994.1257,0.001342
1995.9894,0.000494
1997.8531,-0.000105
1999.7167,-0.000256
2001.5804,0.000100
2003.4441,0.000662
2005.3078,0.000522
2007.1714,-0.000333
2009.0351,0.000444
2010.8988,0.001401
2012.7624,0.000658
2014.6261,0.000119
2016.4898,-0.000263
2018.3534,-0.000363
2020.2171,-0.000111
2022.0808,0.000080
2023.9444,0.000129
2025.8081,-0.001023
2027.6718,-0.001009
2029.5355,0.000232
2031.3991,0.000325
2033.2628,-0.000042
2035.1265,0.000526
2036.9901,0.001368
2038.8538,0.000942
2040.7175,0.001414
2042.5811,0.002176
2044.4448,0.001566
2046.3085,0.002107
2048.1721,0.002895
2050.0358,0.003206
2051.8995,0.003709
2053.7631,0.003674
2055.6268,0.003431
2057.4905,0.003488
2059.3542,0.003297
2061.2178,0.002926
2063.0815,0.003269
2064.9452,0.003616
2066.8088,0.003564
2068.6725,0.003581
2070.5362,0.003348
2072.3998,0.003459
2074.2635,0.004011
2076.1272,0.003828
2077.9908,0.003573
2079.8545,0.004071
2081.7182,0.004849
2083.5819,0.004735
2085.4455,0.003634
2087.3092,0.002775
2089.1729,0.003129
2091.0365,0.003598
2092.9002,0.003007
2094.7639,0.002935
2096.6275,0.003321
2098.4912,0.003250
2100.3549,0.003077
2102.2185,0.003245
2104.0822,0.003437
2105.9459,0.003634
2107.8095,0.003717
2109.6732,0.003712
2111.5369,0.003796
2113.4006,0.004282
2115.2642,0.004132
2117.1279,0.003448
2118.9916,0.003325
2120.8552,0.003321
2122.7189,0.002667
2124.5826,0.002123
2126.4462,0.001986
2128.3099,0.001858
2130.1736,0.001681
2132.0372,0.000904
2133.9009,0.000255
2135.7646,0.000734
2137.6282,0.001671
2139.4919,0.001570
2141.3556,0.000811
2143.2193,0.000678
2145.0829,0.000666
2146.9466,0.000545
2148.8103,0.000264
2150.6739,-0.000371
2152.5376,-0.000003
2154.4013,-0.000693
2156.2649,-0.002940
2158.1286,-0.002164
2159.9923,0.000716
2161.8559,0.001359
2163.7196,0.001605
2165.5833,0.002145
2167.4470,0.002052
2169.3106,0.000823
2171.1743,-0.000101
2173.0380,0.000842
2174.9016,0.002468
2176.7653,0.003000
2178.6290,0.002333
2180.4926,0.002138
2182.3563,0.002586
2184.2200,0.002310
2186.0836,0.001858
2187.9473,0.001754
2189.8110,0.002793
2191.6746,0.003499
2193.5383,0.002501
2195.4020,0.002010
2197.2657,0.002467
2199.1293,0.002915
2200.9930,0.003141
2202.8567,0.002348
2204.7203,0.001343
2206.5840,0.002362
2208.4477,0.003417
2210.3113,0.003325
2212.1750,0.003201
2214.0387,0.002776
2215.9023,0.002707
2217.7660,0.003457
2219.6297,0.003631
2221.4934,0.003055
2223.3570,0.002851
2225.2207,0.003155
2227.0844,0.003515
2228.9480,0.003995
2230.8117,0.003951
2232.6754,0.003455
2234.5390,0.003440
2236.4027,0.003705
2238.2664,0.003776
2240.1300,0.003620
2241.9937,0.003357
2243.8574,0.003312
2245.7210,0.003305
2247.5847,0.003611
2249.4484,0.003921
2251.3121,0.003998
2253.1757,0.004260
2255.0394,0.004273
2256.9031,0.004252
2258.7667,0.004611
2260.6304,0.004841
2262.4941,0.004928
2264.3577,0.004947
2266.2214,0.005089
2268.0851,0.005371
2269.9487,0.005385
2271.8124,0.005275
2273.6761,0.005439
2275.5397,0.005772
2277.4034,0.005580
2279.2671,0.005249
2281.1308,0.005475
2282.9944,0.005967
2284.8581,0.006340
2286.7218,0.006275
2288.5854,0.006287
2290.4491,0.006416
2292.3128,0.006319
2294.1764,0.006225
2296.0401,0.006411
2297.9038,0.006393
2299.7674,0.006171
2301.6311,0.006031
2303.4948,0.006034
2305.3585,0.006036
2307.2221,0.005912
2309.0858,0.005975
2310.9495,0.006001
2312.8131,0.005954
2314.6768,0.005993
2316.5405,0.006003
2318.4041,0.006284
2320.2678,0.006663
2322.1315,0.007102
2323.9951,0.007218
2325.8588,0.006616
2327.7225,0.005868
2329.5861,0.005449
2331.4498,0.005368
2333.3135,0.005467
2335.1772,0.005857
2337.0408,0.006179
2338.9045,0.005742
2340.7682,0.005677
2342.6318,0.006173
2344.4955,0.006171
2346.3592,0.006015
2348.2228,0.005874
2350.0865,0.005372
2351.9502,0.005005
2353.8138,0.004889
2355.6775,0.004764
2357.5412,0.005203
2359.4049,0.005684
2361.2685,0.005918
2363.1322,0.005877
2364.9959,0.005985
2366.8595,0.006325
2368.7232,0.006464
2370.5869,0.006491
2372.4505,0.006580
2374.3142,0.006970
2376.1779,0.007089
2378.0415,0.006888
2379.9052,0.006723
2381.7689,0.006593
2383.6325,0.006464
2385.4962,0.006309
2387.3599,0.006018
2389.2236,0.006087
2391.0872,0.006520
2392.9509,0.006605
2394.8146,0.006317
2396.6782,0.006174
2398.5419,0.006336
2400.4056,0.006578
2402.2692,0.006732
2404.1329,0.006780
2405.9966,0.006745
2407.8602,0.006636
2409.7239,0.006410
2411.5876,0.006382
2413.4512,0.006666
2415.3149,0.006942
2417.1786,0.006963
2419.0423,0.006802
2420.9059,0.006743
2422.7696,0.006727
2424.6333,0.006453
2426.4969,0.006598
2428.3606,0.007142
2430.2243,0.007202
2432.0879,0.007098
2433.9516,0.007234
2435.8153,0.007516
2437.6789,0.007599
2439.5426,0.007209
2441.4063,0.006811
2443.2700,0.006813
2445.1336,0.007021
2446.9973,0.007255
2448.8610,0.007531
2450.7246,0.007519
2452.5883,0.007444
2454.4520,0.007623
2456.3156,0.007574
2458.1793,0.007593
2460.0430,0.007651
2461.9066,0.007198
2463.7703,0.007088
2465.6340,0.007321
2467.4976,0.007421
2469.3613,0.007484
2471.2250,0.007510
2473.0887,0.007613
2474.9523,0.007638
2476.8160,0.007744
2478.6797,0.008011
2480.5433,0.007976
2482.4070,0.007829
2484.2707,0.007889
2486.1343,0.008004
2487.9980,0.008146
2489.8617,0.008241
2491.7253,0.007912
2493.5890,0.007807
2495.4527,0.008277
2497.3164,0.008642
2499.1800,0.008595
2501.0437,0.008426
2502.9074,0.008350
2504.7710,0.008440
2506.6347,0.008382
2508.4984,0.008026
2510.3620,0.007845
2512.2257,0.008249
2514.0894,0.008700
2515.9530,0.008744
2517.8167,0.008634
2519.6804,0.008563
2521.5440,0.008565
2523.4077,0.008819
2525.2714,0.008892
2527.1351,0.008839
2528.9987,0.009122
2530.8624,0.009282
2532.7261,0.008920
2534.5897,0.008728
2536.4534,0.008941
2538.3171,0.009047
2540.1807,0.009073
2542.0444,0.009295
2543.9081,0.009329
2545.7717,0.008926
2547.6354,0.008517
2549.4991,0.008611
2551.3627,0.009136
2553.2264,0.009512
2555.0901,0.009583
2556.9538,0.009675
2558.8174,0.009444
2560.6811,0.009122
2562.5448,0.009065
2564.4084,0.009339
2566.2721,0.009632
2568.1358,0.009723
2569.9994,0.009810
2571.8631,0.009898
2573.7268,0.009783
2575.5904,0.009517
2577.4541,0.009639
2579.3178,0.010276
2581.1815,0.010365
2583.0451,0.010001
2584.9088,0.010012
2586.7725,0.010298
2588.6361,0.010422
2590.4998,0.010536
2592.3635,0.010818
2594.2271,0.010937
2596.0908,0.010983
2597.9545,0.010959
2599.8181,0.010838
2601.6818,0.010889
2603.5455,0.010998
2605.4091,0.011056
2607.2728,0.011225
2609.1365,0.011515
2611.0002,0.011422
2612.8638,0.011224
2614.7275,0.011479
2616.5912,0.011825
2618.4548,0.011748
2620.3185,0.011601
2622.1822,0.011695
2624.0458,0.011895
2625.9095,0.012027
2627.7732,0.012072
2629.6368,0.012141
2631.5005,0.012151
2633.3642,0.012111
2635.2279,0.012253
2637.0915,0.012315
2638.9552,0.012382
2640.8189,0.012505
2642.6825,0.012484
2644.5462,0.012559
2646.4099,0.012773
2648.2735,0.012931
2650.1372,0.012987
2652.0009,0.012820
2653.8645,0.012803
2655.7282,0.012890
2657.5919,0.012805
2659.4555,0.012744
2661.3192,0.012708
2663.1829,0.012619
2665.0466,0.012572
2666.9102,0.012554
2668.7739,0.012610
2670.6376,0.012684
2672.5012,0.012848
2674.3649,0.013036
2676.2286,0.013033
2678.0922,0.013124
2679.9559,0.013261
2681.8196,0.013252
2683.6832,0.013325
2685.5469,0.013321
2687.4106,0.013246
2689.2742,0.013325
2691.1379,0.013517
2693.0016,0.013588
2694.8653,0.013487
2696.7289,0.013294
2698.5926,0.013251
2700.4563,0.013456
2702.3199,0.013588
2704.1836,0.013667
2706.0473,0.013914
2707.9109,0.014077
2709.7746,0.014197
2711.6383,0.014245
2713.5019,0.014141
2715.3656,0.013956
2717.2293,0.013970
2719.0930,0.014243
2720.9566,0.014442
2722.8203,0.014532
2724.6840,0.014556
2726.5476,0.014689
2728.4113,0.014915
2730.2750,0.014843
2732.1386,0.014754
2734.0023,0.014978
2735.8660,0.015250
2737.7296,0.015326
2739.5933,0.015469
2741.4570,0.015534
2743.3206,0.015520
2745.1843,0.015614
2747.0480,0.015543
2748.9117,0.015505
2750.7753,0.015825
2752.6390,0.015973
2754.5027,0.015906
2756.3663,0.016022
2758.2300,0.016027
2760.0937,0.015833
2761.9573,0.015954
2763.8210,0.016222
2765.6847,0.016328
2767.5483,0.016453
2769.4120,0.016712
2771.2757,0.016933
2773.1394,0.017034
2775.0030,0.016880
2776.8667,0.016768
2778.7304,0.016995
2780.5940,0.017262
2782.4577,0.017270
2784.3214,0.017328
2786.1850,0.017520
2788.0487,0.017545
2789.9124,0.017596
2791.7760,0.017770
2793.6397,0.017897
2795.5034,0.017977
2797.3670,0.018069
2799.2307,0.018290
2801.0944,0.018398
2802.9581,0.018347
2804.8217,0.018468
2806.6854,0.018580
2808.5491,0.018546
2810.4127,0.018715
2812.2764,0.018950
2814.1401,0.018979
2816.0037,0.019023
2817.8674,0.019245
2819.7311,0.019375
2821.5947,0.019577
2823.4584,0.019782
2825.3221,0.019799
2827.1857,0.019994
2829.0494,0.020364
2830.9131,0.020481
2832.7768,0.020555
2834.6404,0.020776
2836.5041,0.021101
2838.3678,0.021325
2840.2314,0.021565
2842.0951,0.021888
2843.9588,0.022256
2845.8224,0.022798
2847.6861,0.023170
2849.5498,0.023362
2851.4134,0.023717
2853.2771,0.023739
2855.1408,0.023565
2857.0045,0.023485
2858.8681,0.023460
2860.7318,0.023470
2862.5955,0.023687
2864.4591,0.024114
2866.3228,0.024236
2868.1865,0.024210
2870.0501,0.024542
2871.9138,0.025002
2873.7775,0.025421
2875.6411,0.025475
2877.5048,0.025380
2879.3685,0.025218
2881.2321,0.024931
2883.0958,0.024924
2884.9595,0.024821
2886.8232,0.024518
2888.6868,0.024580
2890.5505,0.024833
2892.4142,0.025093
2894.2778,0.025231
2896.1415,0.025287
2898.0052,0.025421
2899.8688,0.025732
2901.7325,0.026145
2903.5962,0.026581
2905.4598,0.026953
2907.3235,0.027086
2909.1872,0.027067
2911.0509,0.027403
2912.9145,0.028130
2914.7782,0.028751
2916.6419,0.028767
2918.5055,0.028790
2920.3692,0.029239
2922.2329,0.029657
2924.0965,0.029467
2925.9602,0.029089
2927.8239,0.029000
2929.6875,0.028875
2931.5512,0.028788
2933.4149,0.028647
2935.2785,0.028317
2937.1422,0.028203
2939.0059,0.028017
2940.8696,0.027770
2942.7332,0.027466
2944.5969,0.027121
2946.4606,0.026881
2948.3242,0.026898
2950.1879,0.027187
2952.0516,0.027382
2953.9152,0.027264
2955.7789,0.027124
2957.6426,0.026883
2959.5062,0.026613
2961.3699,0.026499
2963.2336,0.026316
2965.0972,0.025899
2966.9609,0.025697
2968.8246,0.025537
2970.6883,0.025119
2972.5519,0.024885
2974.4156,0.024768
2976.2793,0.024474
2978.1429,0.024227
2980.0066,0.024032
2981.8703,0.023821
2983.7339,0.023608
2985.5976,0.023375
2987.4613,0.022913
2989.3249,0.022605
2991.1886,0.022612
2993.0523,0.022608
2994.9160,0.022468
2996.7796,0.022367
2998.6433,0.022219
3000.5070,0.022285
3002.3706,0.022488
3004.2343,0.022449
3006.0980,0.022256
3007.9616,0.022277
3009.8253,0.022378
3011.6890,0.022479
3013.5526,0.022782
3015.4163,0.023263
3017.2800,0.023356
3019.1436,0.023390
3021.0073,0.023448
3022.8710,0.023320
3024.7347,0.023496
3026.5983,0.023711
3028.4620,0.023434
3030.3257,0.023734
3032.1893,0.024448
3034.0530,0.024908
3035.9167,0.025024
3037.7803,0.024893
3039.6440,0.024926
3041.5077,0.025345
3043.3713,0.025595
3045.2350,0.025413
3047.0987,0.025426
3048.9624,0.025748
3050.8260,0.025795
3052.6897,0.025768
3054.5534,0.025777
3056.4170,0.025950
3058.2807,0.026394
3060.1444,0.026625
3062.0080,0.026464
3063.8717,0.026255
3065.7354,0.026157
3067.5990,0.026291
3069.4627,0.026532
3071.3264,0.026581
3073.1900,0.026318
3075.0537,0.026325
3076.9174,0.026546
3078.7811,0.026535
3080.6447,0.026457
3082.5084,0.026630
3084.3721,0.026559
3086.2357,0.026403
3088.0994,0.026409
3089.9631,0.026419
3091.8267,0.026173
3093.6904,0.025975
3095.5541,0.026096
3097.4177,0.025875
3099.2814,0.025707
3101.1451,0.025949
3103.0087,0.026114
3104.8724,0.026203
3106.7361,0.025865
3108.5998,0.025642
3110.4634,0.025962
3112.3271,0.026208
3114.1908,0.026262
3116.0544,0.026450
3117.9181,0.026693
3119.7818,0.026654
3121.6454,0.026218
3123.5091,0.026336
3125.3728,0.026949
3127.2364,0.027289
3129.1001,0.027185
3130.9638,0.027078
3132.8275,0.027195
3134.6911,0.027348
3136.5548,0.027493
3138.4185,0.027776
3140.2821,0.028045
3142.1458,0.027845
3144.0095,0.027696
3145.8731,0.028072
3147.7368,0.028564
3149.6005,0.028972
3151.4641,0.028953
3153.3278,0.028912
3155.1915,0.029121
3157.0551,0.029238
3158.9188,0.029251
3160.7825,0.029556
3162.6462,0.030025
3164.5098,0.030623
3166.3735,0.030715
3168.2372,0.030670
3170.1008,0.030972
3171.9645,0.031378
3173.8282,0.031349
3175.6918,0.031213
3177.5555,0.031525
3179.4192,0.032187
3181.2828,0.032638
3183.1465,0.032573
3185.0102,0.032211
3186.8739,0.032376
3188.7375,0.032961
3190.6012,0.033070
3192.4649,0.032755
3194.3285,0.032934
3196.1922,0.033250
3198.0559,0.033345
3199.9195,0.033649
3201.7832,0.033921
3203.6469,0.033436
3205.5105,0.033271
3207.3742,0.033541
3209.2379,0.033572
3211.1015,0.033894
3212.9652,0.034337
3214.8289,0.034150
3216.6926,0.034029
3218.5562,0.034347
3220.4199,0.034829
3222.2836,0.034494
3224.1472,0.034170
3226.0109,0.034481
3227.8746,0.034823
3229.7382,0.034792
3231.6019,0.034240
3233.4656,0.033961
3235.3292,0.034694
3237.1929,0.035249
3239.0566,0.035069
3240.9202,0.034936
3242.7839,0.035246
3244.6476,0.035588
3246.5113,0.036042
3248.3749,0.035991
3250.2386,0.035603
3252.1023,0.035478
3253.9659,0.035832
3255.8296,0.036436
3257.6933,0.036750
3259.5569,0.036566
3261.4206,0.036566
3263.2843,0.036608
3265.1479,0.036613
3267.0116,0.036426
3268.8753,0.036164
3270.7390,0.036244
3272.6026,0.036647
3274.4663,0.036780
3276.3300,0.036880
3278.1936,0.037373
3280.0573,0.037664
3281.9210,0.037332
3283.7846,0.036716
3285.6483,0.036127
3287.5120,0.035980
3289.3756,0.035935
3291.2393,0.035747
3293.1030,0.035654
3294.9666,0.035593
3296.8303,0.034921
3298.6940,0.034550
3300.5577,0.034438
3302.4213,0.034563
3304.2850,0.034955
3306.1487,0.034940
3308.0123,0.034181
3309.8760,0.033463
3311.7397,0.033053
3313.6033,0.033248
3315.4670,0.033046
3317.3307,0.032370
3319.1943,0.031767
3321.0580,0.031612
3322.9217,0.031682
3324.7854,0.031674
3326.6490,0.031533
3328.5127,0.031459
3330.3764,0.031051
3332.2400,0.030518
3334.1037,0.030244
3335.9674,0.030390
3337.8310,0.030281
3339.6947,0.030129
3341.5584,0.029822
3343.4220,0.029301
3345.2857,0.028869
3347.1494,0.028524
3349.0130,0.028511
3350.8767,0.028798
3352.7404,0.028551
3354.6041,0.028230
3356.4677,0.027976
3358.3314,0.027614
3360.1951,0.027625
3362.0587,0.027715
3363.9224,0.027627
3365.7861,0.027468
3367.6497,0.027251
3369.5134,0.027099
3371.3771,0.026897
3373.2407,0.026719
3375.1044,0.026367
3376.9681,0.026092
3378.8317,0.025786
3380.6954,0.025688
3382.5591,0.025879
3384.4228,0.026198
3386.2864,0.026056
3388.1501,0.025447
3390.0138,0.024947
3391.8774,0.024925
3393.7411,0.025225
3395.6048,0.025042
3397.4684,0.024059
3399.3321,0.023525
3401.1958,0.023503
3403.0594,0.023607
3404.9231,0.023754
3406.7868,0.024306
3408.6505,0.024647
3410.5141,0.023885
3412.3778,0.023243
3414.2415,0.023342
3416.1051,0.023136
3417.9688,0.022748
3419.8325,0.022494
3421.6961,0.022820
3423.5598,0.023095
3425.4235,0.022846
3427.2871,0.022497
3429.1508,0.022251
3431.0145,0.021765
3432.8781,0.021691
3434.7418,0.021629
3436.6055,0.021464
3438.4692,0.021270
3440.3328,0.020810
3442.1965,0.020517
3444.0602,0.020451
3445.9238,0.020210
3447.7875,0.020670
3449.6512,0.020952
3451.5148,0.020666
3453.3785,0.020093
3455.2422,0.019565
3457.1058,0.019445
3458.9695,0.019477
3460.8332,0.019434
3462.6969,0.019307
3464.5605,0.019177
3466.4242,0.018909
3468.2879,0.018065
3470.1515,0.017562
3472.0152,0.017927
3473.8789,0.017727
3475.7425,0.017426
3477.6062,0.017932
3479.4699,0.017777
3481.3335,0.016931
3483.1972,0.016665
3485.0609,0.016575
3486.9245,0.016372
3488.7882,0.016453
3490.6519,0.016543
3492.5156,0.016361
3494.3792,0.015794
3496.2429,0.015399
3498.1066,0.015272
3499.9702,0.015620
3501.8339,0.015557
3503.6976,0.015045
3505.5612,0.014895
3507.4249,0.014308
3509.2886,0.013756
3511.1522,0.014417
3513.0159,0.014467
3514.8796,0.013510
3516.7432,0.013328
3518.6069,0.013215
3520.4706,0.012656
3522.3343,0.012529
3524.1979,0.012747
3526.0616,0.012643
3527.9253,0.011911
3529.7889,0.011856
3531.6526,0.012061
3533.5163,0.011876
3535.3799,0.011332
3537.2436,0.011044
3539.1073,0.011065
3540.9709,0.010591
3542.8346,0.009795
3544.6983,0.010111
3546.5620,0.010672
3548.4256,0.010453
3550.2893,0.010046
3552.1530,0.009669
3554.0166,0.009326
3555.8803,0.009180
3557.7440,0.008678
3559.6076,0.008103
3561.4713,0.007977
3563.3350,0.007794
3565.1986,0.007932
3567.0623,0.008252
3568.9260,0.007949
3570.7896,0.007586
3572.6533,0.007140
3574.5170,0.007236
3576.3807,0.007398
3578.2443,0.006909
3580.1080,0.006238
3581.9717,0.005833
3583.8353,0.005291
3585.6990,0.004982
3587.5627,0.005356
3589.4263,0.006907
3591.2900,0.007267
3593.1537,0.005796
3595.0173,0.005015
3596.8810,0.005151
3598.7447,0.005092
3600.6084,0.004714
3602.4720,0.004480
3604.3357,0.004536
3606.1994,0.003730
3608.0630,0.002863
3609.9267,0.003413
3611.7904,0.003748
3613.6540,0.002828
3615.5177,0.002830
3617.3814,0.002746
3619.2450,0.002475
3621.1087,0.003390
3622.9724,0.003617
3624.8360,0.002392
3626.6997,0.001568
3628.5634,0.001045
3630.4271,0.001733
3632.2907,0.002836
3634.1544,0.002016
3636.0181,0.001574
3637.8817,0.001581
3639.7454,0.001343
3641.6091,0.000817
3643.4727,0.000584
3645.3364,0.000361
3647.2001,-0.000675
3649.0637,-0.000752
3650.9274,0.000812
3652.7911,0.001712
3654.6547,0.001212
3656.5184,0.000277
3658.3821,-0.000081
3660.2458,0.000113
3662.1094,-0.000107
3663.9731,-0.000595
3665.8368,-0.000847
3667.7004,-0.001571
3669.5641,-0.002356
3671.4278,-0.001738
3673.2914,-0.000637
3675.1551,-0.001848
3677.0188,-0.001419
3678.8824,0.000250
3680.7461,-0.000909
3682.6098,-0.001191
3684.4735,-0.001049
3686.3371,-0.001698
3688.2008,-0.002546
3690.0645,-0.002131
3691.9281,-0.001230
3693.7918,-0.000548
3695.6555,-0.000724
3697.5191,-0.001425
3699.3828,-0.001859
3701.2465,-0.002371
3703.1101,-0.001709
3704.9738,-0.000485
3706.8375,-0.000857
3708.7011,-0.001950
3710.5648,-0.002649
3712.4285,-0.002238
3714.2922,-0.001121
3716.1558,-0.000598
3718.0195,-0.001347
3719.8832,-0.001907
3721.7468,-0.002042
3723.6105,-0.002037
3725.4742,-0.001472
3727.3378,-0.001355
3729.2015,-0.001264
3731.0652,-0.001823
3732.9288,-0.002748
3734.7925,-0.002760
3736.6562,-0.002703
3738.5199,-0.001295
3740.3835,-0.000740
3742.2472,-0.001390
3744.1109,-0.002605
3745.9745,-0.002284
3747.8382,-0.000205
3749.7019,-0.001068
3751.5655,-0.001700
3753.4292,-0.000884
3755.2929,-0.000139
3757.1565,-0.000768
3759.0202,-0.001325
3760.8839,-0.001125
3762.7475,-0.000602
3764.6112,-0.001111
3766.4749,-0.001470
3768.3386,-0.000953
3770.2022,-0.001118
3772.0659,-0.000867
3773.9296,-0.000599
3775.7932,-0.000790
3777.6569,-0.000816
3779.5206,-0.001478
3781.3842,-0.001572
3783.2479,-0.001087
3785.1116,-0.001350
3786.9752,-0.001411
3788.8389,-0.001536
3790.7026,-0.001633
3792.5662,-0.001391
3794.4299,-0.001325
3796.2936,-0.001762
3798.1573,-0.001603
3800.0209,-0.001504
3801.8846,-0.002504
3803.7483,-0.001448
3805.6119,-0.000506
3807.4756,-0.001712
3809.3393,-0.001285
3811.2029,-0.000821
3813.0666,-0.001532
3814.9303,-0.002151
3816.7939,-0.002344
3818.6576,-0.000393
3820.5213,-0.000696
3822.3850,-0.002056
3824.2486,-0.001041
3826.1123,-0.000851
3827.9760,-0.000958
3829.8396,-0.000966
3831.7033,-0.001885
3833.5670,-0.001622
3835.4306,-0.001062
3837.2943,-0.001499
3839.1580,-0.001891
3841.0216,-0.001582
3842.8853,-0.000919
3844.7490,-0.000555
3846.6126,-0.000664
3848.4763,-0.001333
3850.3400,-0.001782
3852.2037,-0.002165
3854.0673,-0.002577
3855.9310,-0.001426
3857.7947,-0.000750
3859.6583,-0.001170
3861.5220,-0.001963
3863.3857,-0.001996
3865.2493,-0.001328
3867.1130,-0.000519
3868.9767,-0.000569
3870.8403,-0.001166
3872.7040,-0.000254
3874.5677,-0.000610
3876.4314,-0.000581
3878.2950,-0.000672
3880.1587,-0.001983
3882.0224,-0.001933
3883.8860,-0.000707
3885.7497,-0.001239
3887.6134,-0.001440
3889.4770,-0.000831
3891.3407,-0.001262
3893.2044,-0.001214
3895.0680,-0.000665
3896.9317,-0.000965
3898.7954,-0.001588
3900.6590,-0.001466
3902.5227,-0.000934
3904.3864,-0.000967
3906.2501,-0.000455
3908.1137,0.000076
3909.9774,-0.000476
3911.8411,-0.001144
3913.7047,-0.000763
3915.5684,-0.000805
3917.4321,-0.001359
3919.2957,-0.001287
3921.1594,-0.000796
3923.0231,-0.000524
3924.8867,-0.000857
3926.7504,-0.000777
3928.6141,-0.000656
3930.4777,-0.001016
3932.3414,-0.001307
3934.2051,-0.001016
3936.0688,-0.000633
3937.9324,-0.000847
3939.7961,-0.000802
3941.6598,-0.000572
3943.5234,-0.000542
3945.3871,-0.000659
3947.2508,-0.000672
3949.1144,-0.000835
3950.9781,-0.000800
3952.8418,-0.000692
3954.7054,-0.000620
3956.5691,-0.000601
3958.4328,-0.000480
3960.2965,-0.000650
3962.1601,-0.000577
3964.0238,-0.000245
3965.8875,-0.000438
3967.7511,-0.000843
3969.6148,-0.001036
3971.4785,-0.000689
3973.3421,-0.000530
3975.2058,-0.000658
3977.0695,-0.000689
3978.9331,-0.000537
3980.7968,-0.000329
3982.6605,-0.000439
3984.5241,-0.000661
3986.3878,-0.000767
3988.2515,-0.000754
3990.1152,-0.000493
3991.9788,-0.000642
3993.8425,-0.000926
3995.7062,-0.000809
3997.5698,-0.000577
3999.4335,-0.000544
