Wavenumber,Intensity
650.4205,0.001935
652.2841,0.001457
654.1478,0.001731
656.0115,0.002019
657.8751,0.001632
659.7388,0.002296
661.6025,0.002704
663.4661,0.001604
665.3298,0.000870
667.1935,0.000560
669.0571,0.000808
670.9208,0.002094
672.7845,0.002749
674.6481,0.003096
676.5118,0.003049
678.3755,0.002515
680.2392,0.002711
682.1028,0.003077
683.9665,0.002910
685.8302,0.002744
687.6938,0.002440
689.5575,0.002103
691.4212,0.002343
693.2848,0.002553
695.1485,0.002887
697.0122,0.003087
698.8758,0.002755
700.7395,0.002691
702.6032,0.002839
704.4669,0.002903
706.3305,0.002606
708.1942,0.002460
710.0579,0.002784
711.9215,0.002962
713.7852,0.002634
715.6489,0.002555
717.5125,0.002525
719.3762,0.002739
721.2399,0.002872
723.1035,0.002843
724.9672,0.002763
726.8309,0.002557
728.6945,0.002486
730.5582,0.002559
732.4219,0.002448
734.2856,0.002544
736.1492,0.002756
738.0129,0.002682
739.8766,0.002490
741.7402,0.002681
743.6039,0.002975
745.4676,0.002997
747.3312,0.002890
749.1949,0.002689
751.0586,0.002468
752.9222,0.002509
754.7859,0.002457
756.6496,0.002346
758.5132,0.002155
760.3769,0.002160
762.2406,0.002369
764.1043,0.002392
765.9679,0.002249
767.8316,0.002254
769.6953,0.002334
771.5589,0.002336
773.4226,0.002277
775.2863,0.002154
777.1499,0.002093
779.0136,0.002073
780.8773,0.001993
782.7409,0.002028
784.6046,0.002216
786.4683,0.002213
788.3320,0.002044
790.1956,0.001973
792.0593,0.001846
793.9230,0.001677
795.7866,0.001627
797.6503,0.001697
799.5140,0.001776
801.3776,0.001871
803.2413,0.001917
805.1050,0.001800
806.9686,0.001544
808.8323,0.001487
810.6960,0.001711
812.5596,0.001778
814.4233,0.001747
816.2870,0.001726
818.1507,0.001639
820.0143,0.001642
821.8780,0.001693
823.7417,0.001692
825.6053,0.001639
827.4690,0.001626
829.3327,0.001608
831.1963,0.001450
833.0600,0.001417
834.9237,0.001486
836.7873,0.001456
838.6510,0.001457
840.5147,0.001460
842.3784,0.001338
844.2420,0.001298
846.1057,0.001307
847.9694,0.001330
849.8330,0.001325
851.6967,0.001133
853.5604,0.001012
855.4240,0.001051
857.2877,0.001133
859.1514,0.001188
861.0150,0.001196
862.8787,0.001227
864.7424,0.001196
866.6060,0.001149
868.4697,0.001188
870.3334,0.001242
872.1971,0.001251
874.0607,0.001209
875.9244,0.001202
877.7881,0.001224
879.6517,0.001201
881.5154,0.001239
883.3791,0.001329
885.2427,0.001320
887.1064,0.001247
888.9701,0.001256
890.8337,0.001322
892.6974,0.001314
894.5611,0.001381
896.4247,0.001450
898.2884,0.001399
900.1521,0.001288
902.0158,0.001212
903.8794,0.001209
905.7431,0.001170
907.6068,0.001175
909.4704,0.001211
911.3341,0.001261
913.1978,0.001346
915.0614,0.001308
916.9251,0.001172
918.7888,0.001210
920.6524,0.001293
922.5161,0.001287
924.3798,0.001256
926.2435,0.001250
928.1071,0.001269
929.9708,0.001276
931.8345,0.001242
933.6981,0.001284
935.5618,0.001338
937.4255,0.001327
939.2891,0.001359
941.1528,0.001383
943.0165,0.001444
944.8801,0.001486
946.7438,0.001459
948.6075,0.001440
950.4711,0.001472
952.3348,0.001494
954.1985,0.001526
956.0622,0.001590
957.9258,0.001676
959.7895,0.001715
961.6532,0.001720
963.5168,0.001756
965.3805,0.001830
967.2442,0.001875
969.1078,0.001899
970.9715,0.001921
972.8352,0.001970
974.6988,0.001978
976.5625,0.001990
978.4262,0.002059
980.2899,0.002117
982.1535,0.002177
984.0172,0.002247
985.8809,0.002290
987.7445,0.002343
989.6082,0.002415
991.4719,0.002518
993.3355,0.002602
995.1992,0.002695
997.0629,0.002782
998.9265,0.002843
1000.7902,0.002955
1002.6539,0.003003
1004.5175,0.002998
1006.3812,0.003091
1008.2449,0.003224
1010.1086,0.003314
1011.9722,0.003463
1013.8359,0.003630
1015.6996,0.003698
1017.5632,0.003784
1019.4269,0.003885
1021.2906,0.003990
1023.1542,0.004099
1025.0179,0.004197
1026.8816,0.004291
1028.7452,0.004374
1030.6089,0.004434
1032.4726,0.004522
1034.3362,0.004628
1036.1999,0.004721
1038.0636,0.004831
1039.9273,0.004937
1041.7909,0.005025
1043.6546,0.005062
1045.5183,0.005044
1047.3819,0.005048
1049.2456,0.005117
1051.1093,0.005124
1052.9729,0.005123
1054.8366,0.005151
1056.7003,0.005193
1058.5639,0.005234
1060.4276,0.005273
1062.2913,0.005338
1064.1550,0.005404
1066.0186,0.005406
1067.8823,0.005418
1069.7460,0.005518
1071.6096,0.005605
1073.4733,0.005648
1075.3370,0.005659
1077.2006,0.005661
1079.0643,0.005655
1080.9280,0.005643
1082.7916,0.005630
1084.6553,0.005571
1086.5190,0.005530
1088.3826,0.005471
1090.2463,0.005421
1092.1100,0.005430
1093.9737,0.005409
1095.8373,0.005374
1097.7010,0.005308
1099.5647,0.005229
1101.4283,0.005209
1103.2920,0.005256
1105.1557,0.005272
1107.0193,0.005227
1108.8830,0.005212
1110.7467,0.005207
1112.6103,0.005188
1114.4740,0.005151
1116.3377,0.005136
1118.2014,0.005088
1120.0650,0.005035
1121.9287,0.005040
1123.7924,0.005063
1125.6560,0.005074
1127.5197,0.005039
1129.3834,0.004968
1131.2470,0.004940
1133.1107,0.004935
1134.9744,0.004924
1136.8380,0.004907
1138.7017,0.004863
1140.5654,0.004838
1142.4290,0.004822
1144.2927,0.004841
1146.1564,0.004857
1148.0201,0.004861
1149.8837,0.004874
1151.7474,0.004870
1153.6111,0.004866
1155.4747,0.004866
1157.3384,0.004877
1159.2021,0.004909
1161.0657,0.004895
1162.9294,0.004862
1164.7931,0.004849
1166.6567,0.004838
1168.5204,0.004843
1170.3841,0.004858
1172.2477,0.004844
1174.1114,0.004804
1175.9751,0.004782
1177.8388,0.004757
1179.7024,0.004714
1181.5661,0.004689
1183.4298,0.004719
1185.2934,0.004722
1187.1571,0.004698
1189.0208,0.004753
1190.8844,0.004848
1192.7481,0.004894
1194.6118,0.004919
1196.4754,0.004929
1198.3391,0.004947
1200.2028,0.004988
1202.0665,0.005067
1203.9301,0.005127
1205.7938,0.005151
1207.6575,0.005201
1209.5211,0.005272
1211.3848,0.005306
1213.2485,0.005345
1215.1121,0.005406
1216.9758,0.005430
1218.8395,0.005476
1220.7031,0.005555
1222.5668,0.005608
1224.4305,0.005631
1226.2941,0.005652
1228.1578,0.005687
1230.0215,0.005729
1231.8852,0.005752
1233.7488,0.005748
1235.6125,0.005747
1237.4762,0.005742
1239.3398,0.005750
1241.2035,0.005768
1243.0672,0.005760
1244.9308,0.005718
1246.7945,0.005669
1248.6582,0.005640
1250.5218,0.005632
1252.3855,0.005599
1254.2492,0.005569
1256.1129,0.005563
1257.9765,0.005523
1259.8402,0.005468
1261.7039,0.005475
1263.5675,0.005485
1265.4312,0.005473
1267.2949,0.005478
1269.1585,0.005414
1271.0222,0.005369
1272.8859,0.005376
1274.7495,0.005395
1276.6132,0.005392
1278.4769,0.005356
1280.3405,0.005362
1282.2042,0.005394
1284.0679,0.005408
1285.9316,0.005448
1287.7952,0.005469
1289.6589,0.005440
1291.5226,0.005439
1293.3862,0.005458
1295.2499,0.005460
1297.1136,0.005480
1298.9772,0.005489
1300.8409,0.005472
1302.7046,0.005515
1304.5682,0.005546
1306.4319,0.005544
1308.2956,0.005539
1310.1592,0.005562
1312.0229,0.005555
1313.8866,0.005538
1315.7503,0.005544
1317.6139,0.005556
1319.4776,0.005561
1321.3413,0.005514
1323.2049,0.005457
1325.0686,0.005437
1326.9323,0.005437
1328.7959,0.005439
1330.6596,0.005444
1332.5233,0.005423
1334.3869,0.005407
1336.2506,0.005411
1338.1143,0.005391
1339.9780,0.005433
1341.8416,0.005543
1343.7053,0.005533
1345.5690,0.005497
1347.4326,0.005453
1349.2963,0.005394
1351.1600,0.005394
1353.0236,0.005415
1354.8873,0.005383
1356.7510,0.005357
1358.6146,0.005355
1360.4783,0.005373
1362.3420,0.005358
1364.2056,0.005465
1366.0693,0.005549
1367.9330,0.005505
1369.7967,0.005524
1371.6603,0.005588
1373.5240,0.005528
1375.3877,0.005582
1377.2513,0.005695
1379.1150,0.005718
1380.9787,0.005711
1382.8423,0.005737
1384.7060,0.005800
1386.5697,0.005735
1388.4333,0.005755
1390.2970,0.005907
1392.1607,0.005935
1394.0244,0.005777
1395.8880,0.005829
1397.7517,0.005817
1399.6154,0.005779
1401.4790,0.005946
1403.3427,0.005880
1405.2064,0.005772
1407.0700,0.005745
1408.9337,0.005649
1410.7974,0.005560
1412.6610,0.005547
1414.5247,0.005535
1416.3884,0.005504
1418.2520,0.005229
1420.1157,0.005240
1421.9794,0.005332
1423.8431,0.005155
1425.7067,0.005208
1427.5704,0.005249
1429.4341,0.005110
1431.2977,0.005081
1433.1614,0.005268
1435.0251,0.005176
1436.8887,0.005006
1438.7524,0.005227
1440.6161,0.005258
1442.4797,0.005199
1444.3434,0.005235
1446.2071,0.005174
1448.0707,0.005079
1449.9344,0.005116
1451.7981,0.005117
1453.6618,0.005243
1455.5254,0.005073
1457.3891,0.004710
1459.2528,0.004906
1461.1164,0.005173
1462.9801,0.005064
1464.8438,0.004744
1466.7074,0.004714
1468.5711,0.004870
1470.4348,0.004810
1472.2984,0.004454
1474.1621,0.004491
1476.0258,0.004522
1477.8895,0.004564
1479.7531,0.004536
1481.6168,0.004491
1483.4805,0.004563
1485.3441,0.004561
1487.2078,0.004577
1489.0715,0.004440
1490.9351,0.004487
1492.7988,0.004895
1494.6625,0.004960
1496.5261,0.004872
1498.3898,0.004888
1500.2535,0.004970
1502.1171,0.005312
1503.9808,0.005448
1505.8445,0.005004
1507.7082,0.005252
1509.5718,0.005790
1511.4355,0.005856
1513.2992,0.006032
1515.1628,0.006009
1517.0265,0.006013
1518.8902,0.006251
1520.7538,0.005998
1522.6175,0.006138
1524.4812,0.006336
1526.3448,0.006250
1528.2085,0.006360
1530.0722,0.006689
1531.9359,0.006493
1533.7995,0.006136
1535.6632,0.006649
1537.5269,0.006731
1539.3905,0.006331
1541.2542,0.006583
1543.1179,0.006790
1544.9815,0.006708
1546.8452,0.006808
1548.7089,0.006605
1550.5725,0.006529
1552.4362,0.006459
1554.2999,0.006372
1556.1635,0.006544
1558.0272,0.005779
1559.8909,0.005401
1561.7546,0.006028
1563.6182,0.005894
1565.4819,0.005868
1567.3456,0.005840
1569.2092,0.005284
1571.0729,0.005343
1572.9366,0.005673
1574.8002,0.005338
1576.6639,0.004958
1578.5276,0.005273
1580.3912,0.005342
1582.2549,0.005269
1584.1186,0.005201
1585.9822,0.005101
1587.8459,0.005029
1589.7096,0.005032
1591.5733,0.005090
1593.4369,0.005158
1595.3006,0.005139
1597.1643,0.005146
1599.0279,0.005182
1600.8916,0.005201
1602.7553,0.005212
1604.6189,0.005226
1606.4826,0.005289
1608.3463,0.005335
1610.2099,0.005428
1612.0736,0.005722
1613.9373,0.005951
1615.8010,0.005656
1617.6646,0.005794
1619.5283,0.006363
1621.3920,0.006448
1623.2556,0.006456
1625.1193,0.006871
1626.9830,0.007013
1628.8466,0.007077
1630.7103,0.007445
1632.5740,0.007710
1634.4376,0.007552
1636.3013,0.007664
1638.1650,0.008085
1640.0286,0.008069
1641.8923,0.008177
1643.7560,0.008368
1645.6197,0.008044
1647.4833,0.007990
1649.3470,0.008734
1651.2107,0.008600
1653.0743,0.008094
1654.9380,0.008596
1656.8017,0.008553
1658.6653,0.008357
1660.5290,0.008120
1662.3927,0.007721
1664.2563,0.007653
1666.1200,0.007616
1667.9837,0.007203
1669.8474,0.006838
1671.7110,0.007015
1673.5747,0.006760
1675.4384,0.006342
1677.3020,0.006338
1679.1657,0.006210
1681.0294,0.006123
1682.8930,0.005507
1684.7567,0.004946
1686.6204,0.005292
1688.4840,0.005119
1690.3477,0.004830
1692.2114,0.004743
1694.0750,0.004214
1695.9387,0.003814
1697.8024,0.004114
1699.6661,0.003468
1701.5297,0.003470
1703.3934,0.003712
1705.2571,0.003389
1707.1207,0.003233
1708.9844,0.003184
1710.8481,0.003102
1712.7117,0.003111
1714.5754,0.003116
1716.4391,0.002939
1718.3027,0.002913
1720.1664,0.003229
1722.0301,0.003199
1723.8937,0.003054
1725.7574,0.003003
1727.6211,0.002983
1729.4848,0.003079
1731.3484,0.003190
1733.2121,0.002742
1735.0758,0.002929
1736.9394,0.003357
1738.8031,0.003143
1740.6668,0.003088
1742.5304,0.003200
1744.3941,0.003151
1746.2578,0.003142
1748.1214,0.003180
1749.9851,0.003156
1751.8488,0.003175
1753.7125,0.003301
1755.5761,0.003117
1757.4398,0.003105
1759.3035,0.003195
1761.1671,0.003008
1763.0308,0.003053
1764.8945,0.003186
1766.7581,0.003029
1768.6218,0.003059
1770.4855,0.003122
1772.3491,0.003082
1774.2128,0.003285
1776.0765,0.003385
1777.9401,0.003366
1779.8038,0.003223
1781.6675,0.003207
1783.5312,0.003174
1785.3948,0.003146
1787.2585,0.003236
1789.1222,0.003207
1790.9858,0.003099
1792.8495,0.003180
1794.7132,0.003305
1796.5768,0.003297
1798.4405,0.003300
1800.3042,0.003271
1802.1678,0.003296
1804.0315,0.003325
1805.8952,0.003248
1807.7589,0.003181
1809.6225,0.003103
1811.4862,0.003062
1813.3499,0.003177
1815.2135,0.003161
1817.0772,0.003143
1818.9409,0.003192
1820.8045,0.003120
1822.6682,0.003103
1824.5319,0.003113
1826.3955,0.003342
1828.2592,0.003431
1830.1229,0.003380
1831.9865,0.003453
1833.8502,0.003304
1835.7139,0.003110
1837.5776,0.003069
1839.4412,0.003147
1841.3049,0.003186
1843.1686,0.003039
1845.0322,0.003142
1846.8959,0.003408
1848.7596,0.003447
1850.6232,0.003471
1852.4869,0.003284
1854.3506,0.003128
1856.2142,0.003138
1858.0779,0.003276
1859.9416,0.003236
1861.8052,0.003024
1863.6689,0.002892
1865.5326,0.003022
1867.3963,0.003057
1869.2599,0.003208
1871.1236,0.003461
1872.9873,0.003333
1874.8509,0.003086
1876.7146,0.003148
1878.5783,0.003252
1880.4419,0.003255
1882.3056,0.003194
1884.1693,0.003076
1886.0329,0.003027
1887.8966,0.003013
1889.7603,0.003067
1891.6240,0.003281
1893.4876,0.003173
1895.3513,0.003115
1897.2150,0.003124
1899.0786,0.002968
1900.9423,0.002863
1902.8060,0.002878
1904.6696,0.003054
1906.5333,0.003309
1908.3970,0.003262
1910.2606,0.003081
1912.1243,0.003030
1913.9880,0.003043
1915.8516,0.002960
1917.7153,0.003107
1919.5790,0.003273
1921.4427,0.002892
1923.3063,0.002706
1925.1700,0.002956
1927.0337,0.002957
1928.8973,0.003020
1930.7610,0.003034
1932.6247,0.002698
1934.4883,0.002354
1936.3520,0.002261
1938.2157,0.002382
1940.0793,0.002585
1941.9430,0.002335
1943.8067,0.002385
1945.6704,0.002753
1947.5340,0.002880
1949.3977,0.002600
1951.2614,0.002190
1953.1250,0.001964
1954.9887,0.001990
1956.8524,0.001696
1958.7160,0.001557
1960.5797,0.001885
1962.4434,0.001951
1964.3070,0.001134
1966.1707,0.000586
1968.0344,0.001154
1969.8980,0.001724
1971.7617,0.001475
1973.6254,0.001681
1975.4891,0.002306
1977.3527,0.002551
1979.2164,0.002842
1981.0801,0.003222
1982.9437,0.003008
1984.8074,0.002855
1986.6711,0.002456
1988.5347,0.002145
1990.3984,0.002277
1992.2621,0.002749
1994.1257,0.002886
1995.9894,0.002696
1997.8531,0.002266
1999.7167,0.002106
2001.5804,0.001648
2003.4441,0.001074
2005.3078,0.000865
2007.1714,0.001212
2009.0351,0.001776
2010.8988,0.001782
2012.7624,0.001434
2014.6261,0.001329
2016.4898,0.001686
2018.3534,0.001993
2020.2171,0.001971
2022.0808,0.002369
2023.9444,0.002142
2025.8081,0.001776
2027.6718,0.002144
2029.5355,0.002013
2031.3991,0.000920
2033.2628,0.001444
2035.1265,0.002960
2036.9901,0.003079
2038.8538,0.002522
2040.7175,0.002619
2042.5811,0.002949
2044.4448,0.002840
2046.3085,0.002760
2048.1721,0.003394
2050.0358,0.003814
2051.8995,0.003759
2053.7631,0.003393
2055.6268,0.003338
2057.4905,0.003342
2059.3542,0.003630
2061.2178,0.003726
2063.0815,0.003741
2064.9452,0.003357
2066.8088,0.002939
2068.6725,0.003062
2070.5362,0.003461
2072.3998,0.003492
2074.2635,0.003230
2076.1272,0.003346
2077.9908,0.003509
2079.8545,0.003385
2081.7182,0.003309
2083.5819,0.003377
2085.4455,0.003496
2087.3092,0.003439
2089.1729,0.003239
2091.0365,0.003126
2092.9002,0.003199
2094.7639,0.003121
2096.6275,0.003075
2098.4912,0.003267
2100.3549,0.003343
2102.2185,0.003190
2104.0822,0.003290
2105.9459,0.003268
2107.8095,0.003024
2109.6732,0.003138
2111.5369,0.003421
2113.4006,0.003298
2115.2642,0.002968
2117.1279,0.002758
2118.9916,0.002635
2120.8552,0.002425
2122.7189,0.002264
2124.5826,0.002257
2126.4462,0.002432
2128.3099,0.002492
2130.1736,0.002260
2132.0372,0.001792
2133.9009,0.001718
2135.7646,0.001934
2137.6282,0.001874
2139.4919,0.001602
2141.3556,0.002002
2143.2193,0.001975
2145.0829,0.001009
2146.9466,0.000688
2148.8103,0.000990
2150.6739,0.000945
2152.5376,0.000994
2154.4013,0.000585
2156.2649,0.000026
2158.1286,0.001014
2159.9923,0.002904
2161.8559,0.003622
2163.7196,0.003185
2165.5833,0.003053
2167.4470,0.004060
2169.3106,0.004245
2171.1743,0.003104
2173.0380,0.002298
2174.9016,0.002529
2176.7653,0.002830
2178.6290,0.002809
2180.4926,0.003077
2182.3563,0.003289
2184.2200,0.003281
2186.0836,0.003138
2187.9473,0.002647
2189.8110,0.002763
2191.6746,0.003161
2193.5383,0.003465
2195.4020,0.003154
2197.2657,0.002454
2199.1293,0.002365
2200.9930,0.002966
2202.8567,0.003312
2204.7203,0.003373
2206.5840,0.003442
2208.4477,0.003382
2210.3113,0.003092
2212.1750,0.002810
2214.0387,0.002964
2215.9023,0.003456
2217.7660,0.003530
2219.6297,0.003261
2221.4934,0.003124
2223.3570,0.003438
2225.2207,0.003647
2227.0844,0.003755
2228.9480,0.003570
2230.8117,0.003255
2232.6754,0.003461
2234.5390,0.003684
2236.4027,0.003789
2238.2664,0.003907
2240.1300,0.003650
2241.9937,0.003275
2243.8574,0.003367
2245.7210,0.003523
2247.5847,0.003591
2249.4484,0.003533
2251.3121,0.003446
2253.1757,0.003702
2255.0394,0.003944
2256.9031,0.003780
2258.7667,0.003461
2260.6304,0.003467
2262.4941,0.003848
2264.3577,0.004094
2266.2214,0.003925
2268.0851,0.003665
2269.9487,0.003737
2271.8124,0.003979
2273.6761,0.004118
2275.5397,0.004252
2277.4034,0.004134
2279.2671,0.004157
2281.1308,0.004491
2282.9944,0.004573
2284.8581,0.004486
2286.7218,0.004402
2288.5854,0.004298
2290.4491,0.004229
2292.3128,0.004220
2294.1764,0.004214
2296.0401,0.004011
2297.9038,0.004001
2299.7674,0.004158
2301.6311,0.004161
2303.4948,0.003977
2305.3585,0.004044
2307.2221,0.004238
2309.0858,0.004251
2310.9495,0.004209
2312.8131,0.004171
2314.6768,0.004092
2316.5405,0.004183
2318.4041,0.004042
2320.2678,0.004050
2322.1315,0.004635
2323.9951,0.004822
2325.8588,0.004295
2327.7225,0.003884
2329.5861,0.003779
2331.4498,0.003713
2333.3135,0.003772
2335.1772,0.003966
2337.0408,0.004177
2338.9045,0.004489
2340.7682,0.004616
2342.6318,0.004634
2344.4955,0.004717
2346.3592,0.004781
2348.2228,0.004521
2350.0865,0.003760
2351.9502,0.002833
2353.8138,0.002581
2355.6775,0.002944
2357.5412,0.003359
2359.4049,0.003508
2361.2685,0.003944
2363.1322,0.004575
2364.9959,0.004712
2366.8595,0.005447
2368.7232,0.006152
2370.5869,0.005778
2372.4505,0.005137
2374.3142,0.005006
2376.1779,0.004853
2378.0415,0.004472
2379.9052,0.004280
2381.7689,0.004232
2383.6325,0.004045
2385.4962,0.003849
2387.3599,0.003787
2389.2236,0.003749
2391.0872,0.003696
2392.9509,0.003510
2394.8146,0.003543
2396.6782,0.003793
2398.5419,0.003886
2400.4056,0.003763
2402.2692,0.003756
2404.1329,0.003867
2405.9966,0.003790
2407.8602,0.003759
2409.7239,0.003910
2411.5876,0.004028
2413.4512,0.004010
2415.3149,0.003984
2417.1786,0.004064
2419.0423,0.004082
2420.9059,0.003879
2422.7696,0.003732
2424.6333,0.003829
2426.4969,0.003880
2428.3606,0.003953
2430.2243,0.004084
2432.0879,0.003975
2433.9516,0.003853
2435.8153,0.003869
2437.6789,0.003996
2439.5426,0.004132
2441.4063,0.004140
2443.2700,0.004130
2445.1336,0.004055
2446.9973,0.003977
2448.8610,0.004066
2450.7246,0.004213
2452.5883,0.004243
2454.4520,0.004128
2456.3156,0.004121
2458.1793,0.004164
2460.0430,0.004072
2461.9066,0.003990
2463.7703,0.004014
2465.6340,0.004077
2467.4976,0.004156
2469.3613,0.004147
2471.2250,0.004103
2473.0887,0.004125
2474.9523,0.004162
2476.8160,0.004155
2478.6797,0.004103
2480.5433,0.004048
2482.4070,0.004112
2484.2707,0.004156
2486.1343,0.004078
2487.9980,0.003987
2489.8617,0.004038
2491.7253,0.004187
2493.5890,0.004231
2495.4527,0.004182
2497.3164,0.004210
2499.1800,0.004334
2501.0437,0.004395
2502.9074,0.004317
2504.7710,0.004320
2506.6347,0.004305
2508.4984,0.004060
2510.3620,0.004000
2512.2257,0.004204
2514.0894,0.004412
2515.9530,0.004402
2517.8167,0.004259
2519.6804,0.004290
2521.5440,0.004377
2523.4077,0.004292
2525.2714,0.004232
2527.1351,0.004358
2528.9987,0.004503
2530.8624,0.004551
2532.7261,0.004413
2534.5897,0.004331
2536.4534,0.004373
2538.3171,0.004447
2540.1807,0.004457
2542.0444,0.004267
2543.9081,0.004214
2545.7717,0.004323
2547.6354,0.004457
2549.4991,0.004503
2551.3627,0.004434
2553.2264,0.004399
2555.0901,0.004381
2556.9538,0.004337
2558.8174,0.004356
2560.6811,0.004352
2562.5448,0.004423
2564.4084,0.004536
2566.2721,0.004544
2568.1358,0.004422
2569.9994,0.004383
2571.8631,0.004405
2573.7268,0.004448
2575.5904,0.004531
2577.4541,0.004615
2579.3178,0.004530
2581.1815,0.004513
2583.0451,0.004623
2584.9088,0.004585
2586.7725,0.004530
2588.6361,0.004614
2590.4998,0.004733
2592.3635,0.004749
2594.2271,0.004638
2596.0908,0.004583
2597.9545,0.004628
2599.8181,0.004694
2601.6818,0.004693
2603.5455,0.004665
2605.4091,0.004662
2607.2728,0.004630
2609.1365,0.004563
2611.0002,0.004598
2612.8638,0.004674
2614.7275,0.004613
2616.5912,0.004619
2618.4548,0.004660
2620.3185,0.004684
2622.1822,0.004730
2624.0458,0.004705
2625.9095,0.004640
2627.7732,0.004671
2629.6368,0.004685
2631.5005,0.004654
2633.3642,0.004714
2635.2279,0.004688
2637.0915,0.004635
2638.9552,0.004641
2640.8189,0.004662
2642.6825,0.004700
2644.5462,0.004651
2646.4099,0.004569
2648.2735,0.004563
2650.1372,0.004550
2652.0009,0.004566
2653.8645,0.004611
2655.7282,0.004590
2657.5919,0.004542
2659.4555,0.004450
2661.3192,0.004316
2663.1829,0.004222
2665.0466,0.004226
2666.9102,0.004295
2668.7739,0.004322
2670.6376,0.004352
2672.5012,0.004363
2674.3649,0.004248
2676.2286,0.004173
2678.0922,0.004214
2679.9559,0.004206
2681.8196,0.004191
2683.6832,0.004256
2685.5469,0.004277
2687.4106,0.004252
2689.2742,0.004266
2691.1379,0.004266
2693.0016,0.004266
2694.8653,0.004331
2696.7289,0.004367
2698.5926,0.004325
2700.4563,0.004323
2702.3199,0.004311
2704.1836,0.004317
2706.0473,0.004387
2707.9109,0.004399
2709.7746,0.004380
2711.6383,0.004370
2713.5019,0.004410
2715.3656,0.004399
2717.2293,0.004280
2719.0930,0.004298
2720.9566,0.004383
2722.8203,0.004359
2724.6840,0.004363
2726.5476,0.004464
2728.4113,0.004491
2730.2750,0.004462
2732.1386,0.004447
2734.0023,0.004350
2735.8660,0.004302
2737.7296,0.004345
2739.5933,0.004364
2741.4570,0.004371
2743.3206,0.004398
2745.1843,0.004398
2747.0480,0.004368
2748.9117,0.004414
2750.7753,0.004463
2752.6390,0.004439
2754.5027,0.004435
2756.3663,0.004479
2758.2300,0.004546
2760.0937,0.004499
2761.9573,0.004437
2763.8210,0.004528
2765.6847,0.004476
2767.5483,0.004353
2769.4120,0.004383
2771.2757,0.004409
2773.1394,0.004443
2775.0030,0.004535
2776.8667,0.004540
2778.7304,0.004524
2780.5940,0.004473
2782.4577,0.004458
2784.3214,0.004553
2786.1850,0.004617
2788.0487,0.004580
2789.9124,0.004525
2791.7760,0.004554
2793.6397,0.004588
2795.5034,0.004522
2797.3670,0.004507
2799.2307,0.004493
2801.0944,0.004523
2802.9581,0.004617
2804.8217,0.004570
2806.6854,0.004525
2808.5491,0.004573
2810.4127,0.004663
2812.2764,0.004740
2814.1401,0.004751
2816.0037,0.004729
2817.8674,0.004742
2819.7311,0.004788
2821.5947,0.004756
2823.4584,0.004697
2825.3221,0.004749
2827.1857,0.004824
2829.0494,0.004886
2830.9131,0.004861
2832.7768,0.004743
2834.6404,0.004720
2836.5041,0.004767
2838.3678,0.004818
2840.2314,0.004946
2842.0951,0.005064
2843.9588,0.005052
2845.8224,0.005089
2847.6861,0.005193
2849.5498,0.005221
2851.4134,0.005159
2853.2771,0.005137
2855.1408,0.005257
2857.0045,0.005348
2858.8681,0.005311
2860.7318,0.005251
2862.5955,0.005274
2864.4591,0.005361
2866.3228,0.005390
2868.1865,0.005268
2870.0501,0.005254
2871.9138,0.005409
2873.7775,0.005437
2875.6411,0.005392
2877.5048,0.005396
2879.3685,0.005344
2881.2321,0.005253
2883.0958,0.005231
2884.9595,0.005289
2886.8232,0.005425
2888.6868,0.005437
2890.5505,0.005393
2892.4142,0.005416
2894.2778,0.005400
2896.1415,0.005364
2898.0052,0.005405
2899.8688,0.005545
2901.7325,0.005621
2903.5962,0.005605
2905.4598,0.005621
2907.3235,0.005643
2909.1872,0.005723
2911.0509,0.005776
2912.9145,0.005756
2914.7782,0.005824
2916.6419,0.005853
2918.5055,0.005800
2920.3692,0.005792
2922.2329,0.005850
2924.0965,0.005873
2925.9602,0.005897
2927.8239,0.005983
2929.6875,0.006028
2931.5512,0.005998
2933.4149,0.005891
2935.2785,0.005867
2937.1422,0.005932
2939.0059,0.005888
2940.8696,0.005744
2942.7332,0.005678
2944.5969,0.005785
2946.4606,0.005839
2948.3242,0.005673
2950.1879,0.005611
2952.0516,0.005818
2953.9152,0.005838
2955.7789,0.005670
2957.6426,0.005619
2959.5062,0.005597
2961.3699,0.005658
2963.2336,0.005725
2965.0972,0.005707
2966.9609,0.005680
2968.8246,0.005594
2970.6883,0.005492
2972.5519,0.005575
2974.4156,0.005618
2976.2793,0.005561
2978.1429,0.005482
2980.0066,0.005368
2981.8703,0.005335
2983.7339,0.005307
2985.5976,0.005210
2987.4613,0.005171
2989.3249,0.005163
2991.1886,0.005213
2993.0523,0.005299
2994.9160,0.005258
2996.7796,0.005254
2998.6433,0.005311
3000.5070,0.005336
3002.3706,0.005329
3004.2343,0.005313
3006.0980,0.005368
3007.9616,0.005416
3009.8253,0.005388
3011.6890,0.005238
3013.5526,0.005165
3015.4163,0.005332
3017.2800,0.005420
3019.1436,0.005346
3021.0073,0.005312
3022.8710,0.005346
3024.7347,0.005404
3026.5983,0.005397
3028.4620,0.005334
3030.3257,0.005363
3032.1893,0.005465
3034.0530,0.005522
3035.9167,0.005575
3037.7803,0.005609
3039.6440,0.005490
3041.5077,0.005365
3043.3713,0.005546
3045.2350,0.005674
3047.0987,0.005625
3048.9624,0.005690
3050.8260,0.005660
3052.6897,0.005519
3054.5534,0.005523
3056.4170,0.005594
3058.2807,0.005641
3060.1444,0.005625
3062.0080,0.005616
3063.8717,0.005637
3065.7354,0.005568
3067.5990,0.005544
3069.4627,0.005544
3071.3264,0.005549
3073.1900,0.005653
3075.0537,0.005709
3076.9174,0.005661
3078.7811,0.005663
3080.6447,0.005733
3082.5084,0.005769
3084.3721,0.005745
3086.2357,0.005682
3088.0994,0.005554
3089.9631,0.005505
3091.8267,0.005634
3093.6904,0.005721
3095.5541,0.005859
3097.4177,0.005991
3099.2814,0.005834
3101.1451,0.005648
3103.0087,0.005680
3104.8724,0.005701
3106.7361,0.005643
3108.5998,0.005659
3110.4634,0.005772
3112.3271,0.005890
3114.1908,0.005882
3116.0544,0.005839
3117.9181,0.005788
3119.7818,0.005739
3121.6454,0.005800
3123.5091,0.005851
3125.3728,0.005935
3127.2364,0.006072
3129.1001,0.006078
3130.9638,0.005936
3132.8275,0.005800
3134.6911,0.005850
3136.5548,0.006022
3138.4185,0.006141
3140.2821,0.006154
3142.1458,0.006079
3144.0095,0.005989
3145.8731,0.005948
3147.7368,0.006054
3149.6005,0.006122
3151.4641,0.006093
3153.3278,0.006123
3155.1915,0.006216
3157.0551,0.006350
3158.9188,0.006402
3160.7825,0.006256
3162.6462,0.006140
3164.5098,0.006188
3166.3735,0.006180
3168.2372,0.006194
3170.1008,0.006247
3171.9645,0.006269
3173.8282,0.006271
3175.6918,0.006302
3177.5555,0.006411
3179.4192,0.006450
3181.2828,0.006376
3183.1465,0.006442
3185.0102,0.006622
3186.8739,0.006660
3188.7375,0.006592
3190.6012,0.006505
3192.4649,0.006522
3194.3285,0.006540
3196.1922,0.006489
3198.0559,0.006490
3199.9195,0.006473
3201.7832,0.006472
3203.6469,0.006540
3205.5105,0.006638
3207.3742,0.006815
3209.2379,0.006882
3211.1015,0.006636
3212.9652,0.006498
3214.8289,0.006635
3216.6926,0.006770
3218.5562,0.006870
3220.4199,0.006944
3222.2836,0.007016
3224.1472,0.006970
3226.0109,0.006824
3227.8746,0.006854
3229.7382,0.007006
3231.6019,0.007093
3233.4656,0.006999
3235.3292,0.006723
3237.1929,0.006711
3239.0566,0.006975
3240.9202,0.007244
3242.7839,0.007340
3244.6476,0.007225
3246.5113,0.007194
3248.3749,0.007138
3250.2386,0.007060
3252.1023,0.007183
3253.9659,0.007319
3255.8296,0.007306
3257.6933,0.007230
3259.5569,0.007330
3261.4206,0.007527
3263.2843,0.007563
3265.1479,0.007424
3267.0116,0.007244
3268.8753,0.007225
3270.7390,0.007336
3272.6026,0.007505
3274.4663,0.007526
3276.3300,0.007476
3278.1936,0.007544
3280.0573,0.007478
3281.9210,0.007461
3283.7846,0.007570
3285.6483,0.007541
3287.5120,0.007467
3289.3756,0.007393
3291.2393,0.007423
3293.1030,0.007458
3294.9666,0.007327
3296.8303,0.007343
3298.6940,0.007493
3300.5577,0.007363
3302.4213,0.007191
3304.2850,0.007317
3306.1487,0.007412
3308.0123,0.007343
3309.8760,0.007358
3311.7397,0.007458
3313.6033,0.007358
3315.4670,0.007206
3317.3307,0.007147
3319.1943,0.007135
3321.0580,0.007177
3322.9217,0.007121
3324.7854,0.007075
3326.6490,0.007044
3328.5127,0.007032
3330.3764,0.007103
3332.2400,0.007060
3334.1037,0.007041
3335.9674,0.007062
3337.8310,0.007028
3339.6947,0.007007
3341.5584,0.006969
3343.4220,0.006945
3345.2857,0.006960
3347.1494,0.006915
3349.0130,0.006824
3350.8767,0.006854
3352.7404,0.006683
3354.6041,0.006391
3356.4677,0.006552
3358.3314,0.006772
3360.1951,0.006764
3362.0587,0.006740
3363.9224,0.006763
3365.7861,0.006825
3367.6497,0.006792
3369.5134,0.006689
3371.3771,0.006566
3373.2407,0.006496
3375.1044,0.006488
3376.9681,0.006464
3378.8317,0.006353
3380.6954,0.006231
3382.5591,0.006329
3384.4228,0.006464
3386.2864,0.006373
3388.1501,0.006374
3390.0138,0.006541
3391.8774,0.006577
3393.7411,0.006354
3395.6048,0.006139
3397.4684,0.006281
3399.3321,0.006346
3401.1958,0.006246
3403.0594,0.006419
3404.9231,0.006586
3406.7868,0.006548
3408.6505,0.006376
3410.5141,0.006059
3412.3778,0.005878
3414.2415,0.006027
3416.1051,0.006113
3417.9688,0.005951
3419.8325,0.005884
3421.6961,0.006033
3423.5598,0.006228
3425.4235,0.006186
3427.2871,0.005968
3429.1508,0.005981
3431.0145,0.006064
3432.8781,0.006022
3434.7418,0.005921
3436.6055,0.005779
3438.4692,0.005704
3440.3328,0.005739
3442.1965,0.005878
3444.0602,0.005945
3445.9238,0.005871
3447.7875,0.005818
3449.6512,0.005821
3451.5148,0.005738
3453.3785,0.005769
3455.2422,0.005821
3457.1058,0.005668
3458.9695,0.005763
3460.8332,0.005775
3462.6969,0.005500
3464.5605,0.005286
3466.4242,0.005251
3468.2879,0.005554
3470.1515,0.005676
3472.0152,0.005545
3473.8789,0.005514
3475.7425,0.005474
3477.6062,0.005482
3479.4699,0.005428
3481.3335,0.005251
3483.1972,0.005230
3485.0609,0.005381
3486.9245,0.005425
3488.7882,0.005401
3490.6519,0.005428
3492.5156,0.005438
3494.3792,0.005274
3496.2429,0.005230
3498.1066,0.005370
3499.9702,0.005325
3501.8339,0.005167
3503.6976,0.005033
3505.5612,0.005014
3507.4249,0.005086
3509.2886,0.005118
3511.1522,0.005153
3513.0159,0.005173
3514.8796,0.005028
3516.7432,0.004945
3518.6069,0.004983
3520.4706,0.004898
3522.3343,0.004771
3524.1979,0.004997
3526.0616,0.005316
3527.9253,0.005180
3529.7889,0.004871
3531.6526,0.004692
3533.5163,0.004760
3535.3799,0.004776
3537.2436,0.004703
3539.1073,0.004817
3540.9709,0.004790
3542.8346,0.004607
3544.6983,0.004664
3546.5620,0.004886
3548.4256,0.004977
3550.2893,0.004976
3552.1530,0.004963
3554.0166,0.004867
3555.8803,0.004660
3557.7440,0.004435
3559.6076,0.004409
3561.4713,0.004568
3563.3350,0.004572
3565.1986,0.004646
3567.0623,0.004904
3568.9260,0.005262
3570.7896,0.005297
3572.6533,0.004825
3574.5170,0.004554
3576.3807,0.004679
3578.2443,0.004792
3580.1080,0.004702
3581.9717,0.004530
3583.8353,0.004355
3585.6990,0.004186
3587.5627,0.004409
3589.4263,0.004944
3591.2900,0.004964
3593.1537,0.004513
3595.0173,0.004349
3596.8810,0.004642
3598.7447,0.004803
3600.6084,0.004693
3602.4720,0.004715
3604.3357,0.004829
3606.1994,0.004641
3608.0630,0.004365
3609.9267,0.004624
3611.7904,0.004862
3613.6540,0.004544
3615.5177,0.004582
3617.3814,0.004761
3619.2450,0.004568
3621.1087,0.004763
3622.9724,0.005118
3624.8360,0.005129
3626.6997,0.004801
3628.5634,0.004481
3630.4271,0.005195
3632.2907,0.005736
3634.1544,0.005273
3636.0181,0.004976
3637.8817,0.004585
3639.7454,0.004242
3641.6091,0.004104
3643.4727,0.004106
3645.3364,0.004389
3647.2001,0.004425
3649.0637,0.004608
3650.9274,0.005163
3652.7911,0.005396
3654.6547,0.005109
3656.5184,0.004670
3658.3821,0.004802
3660.2458,0.004834
3662.1094,0.004415
3663.9731,0.004200
3665.8368,0.004182
3667.7004,0.004098
3669.5641,0.003994
3671.4278,0.004441
3673.2914,0.004976
3675.1551,0.004584
3677.0188,0.004716
3678.8824,0.005234
3680.7461,0.004908
3682.6098,0.004741
3684.4735,0.004664
3686.3371,0.004401
3688.2008,0.004106
3690.0645,0.004310
3691.9281,0.004968
3693.7918,0.005094
3695.6555,0.004788
3697.5191,0.004598
3699.3828,0.004471
3701.2465,0.004127
3703.1101,0.004221
3704.9738,0.004671
3706.8375,0.004622
3708.7011,0.004375
3710.5648,0.004442
3712.4285,0.004506
3714.2922,0.004778
3716.1558,0.004990
3718.0195,0.004673
3719.8832,0.004348
3721.7468,0.004223
3723.6105,0.004397
3725.4742,0.004615
3727.3378,0.004749
3729.2015,0.005048
3731.0652,0.004872
3732.9288,0.004412
3734.7925,0.004311
3736.6562,0.004444
3738.5199,0.004854
3740.3835,0.004938
3742.2472,0.004612
3744.1109,0.004190
3745.9745,0.004723
3747.8382,0.005573
3749.7019,0.004992
3751.5655,0.004698
3753.4292,0.005242
3755.2929,0.005438
3757.1565,0.005049
3759.0202,0.004646
3760.8839,0.004662
3762.7475,0.004851
3764.6112,0.004547
3766.4749,0.004277
3768.3386,0.004554
3770.2022,0.004607
3772.0659,0.004772
3773.9296,0.004763
3775.7932,0.004442
3777.6569,0.004385
3779.5206,0.004410
3781.3842,0.004608
3783.2479,0.004728
3785.1116,0.004519
3786.9752,0.004412
3788.8389,0.004318
3790.7026,0.004306
3792.5662,0.004401
3794.4299,0.004345
3796.2936,0.004116
3798.1573,0.004250
3800.0209,0.004440
3801.8846,0.004280
3803.7483,0.004669
3805.6119,0.004773
3807.4756,0.004422
3809.3393,0.004436
3811.2029,0.004438
3813.0666,0.004411
3814.9303,0.004255
3816.7939,0.004231
3818.6576,0.004888
3820.5213,0.004693
3822.3850,0.004387
3824.2486,0.004920
3826.1123,0.004664
3827.9760,0.004342
3829.8396,0.004386
3831.7033,0.004261
3833.5670,0.004370
3835.4306,0.004553
3837.2943,0.004333
3839.1580,0.004423
3841.0216,0.004878
3842.8853,0.004882
3844.7490,0.004562
3846.6126,0.004521
3848.4763,0.004392
3850.3400,0.004106
3852.2037,0.004085
3854.0673,0.004529
3855.9310,0.005269
3857.7947,0.005250
3859.6583,0.004819
3861.5220,0.004409
3863.3857,0.004294
3865.2493,0.004511
3867.1130,0.004663
3868.9767,0.004570
3870.8403,0.004430
3872.7040,0.004803
3874.5677,0.004713
3876.4314,0.004657
3878.2950,0.004740
3880.1587,0.004378
3882.0224,0.004404
3883.8860,0.004693
3885.7497,0.004461
3887.6134,0.004547
3889.4770,0.004785
3891.3407,0.004482
3893.2044,0.004644
3895.0680,0.004913
3896.9317,0.004684
3898.7954,0.004465
3900.6590,0.004499
3902.5227,0.004626
3904.3864,0.004580
3906.2501,0.004717
3908.1137,0.004848
3909.9774,0.004558
3911.8411,0.004389
3913.7047,0.004505
3915.5684,0.004456
3917.4321,0.004382
3919.2957,0.004634
3921.1594,0.004766
3923.0231,0.004601
3924.8867,0.004564
3926.7504,0.004565
3928.6141,0.004470
3930.4777,0.004412
3932.3414,0.004536
3934.2051,0.004709
3936.0688,0.004704
3937.9324,0.004511
3939.7961,0.004390
3941.6598,0.004362
3943.5234,0.004562
3945.3871,0.004789
3947.2508,0.004596
3949.1144,0.004370
3950.9781,0.004388
3952.8418,0.004543
3954.7054,0.004725
3956.5691,0.004686
3958.4328,0.004596
3960.2965,0.004585
3962.1601,0.004472
3964.0238,0.004502
3965.8875,0.004660
3967.7511,0.004549
3969.6148,0.004381
3971.4785,0.004410
3973.3421,0.004646
3975.2058,0.004870
3977.0695,0.004793
3978.9331,0.004599
3980.7968,0.004394
3982.6605,0.004287
3984.5241,0.004419
3986.3878,0.004442
3988.2515,0.004353
3990.1152,0.004431
3991.9788,0.004566
3993.8425,0.004670
3995.7062,0.004723
3997.5698,0.004783
3999.4335,0.004778
